* Measurement data measured by REW V5.30.8
* Source: CODEC [plughw:1,0], no input selected, R, volume: no control
* Format: 512k Log Swept Sine, 1 sweep at 0.0 dBFS, at 48000 Hz
* Dated: Feb 10, 2024 1:22:46 PM
* Sense Resistor: 99.8
* Lead resistance: 0.000
* Input resistance: 20000.000
* Calibration factor: 1.0000
* Note: 
* Measurement: Tweeter Impedance
* Smoothing: 1/24 octave
* Frequency Step: 1/96 octave
* Start Frequency: 302.040 Hz
*
* Freq(Hz)	Z(Ohms)	Phase(degrees)
302.039795	4.260388	32.4206
304.228485	4.273261	32.5076
306.433044	4.291516	32.6272
308.653595	4.312901	32.7617
310.890228	4.335974	32.9018
313.143066	4.359960	33.0440
315.412231	4.384472	33.1874
317.697845	4.409335	33.3309
320.000000	4.434501	33.4734
322.318848	4.460003	33.6142
324.654510	4.485951	33.7529
327.007080	4.512497	33.8891
329.376709	4.539744	34.0228
331.763519	4.567729	34.1541
334.167603	4.596461	34.2830
336.589142	4.625940	34.4094
339.028198	4.656123	34.5331
341.484924	4.686932	34.6551
343.959473	4.718336	34.7765
346.451935	4.750404	34.8984
348.962463	4.783305	35.0200
351.491211	4.817224	35.1395
354.038239	4.852245	35.2546
356.603760	4.888326	35.3646
359.187866	4.925313	35.4699
361.790680	4.963038	35.5718
364.412354	5.001394	35.6714
367.053040	5.040382	35.7692
369.712860	5.080102	35.8653
372.391968	5.120674	35.9591
375.090454	5.162168	36.0488
377.808533	5.204628	36.1334
380.546265	5.248142	36.2124
383.303864	5.292814	36.2860
386.081451	5.338696	36.3546
388.879150	5.385810	36.4185
391.697144	5.434207	36.4775
394.535522	5.483933	36.5311
397.394501	5.534999	36.5793
400.274170	5.587386	36.6230
403.174744	5.641080	36.6628
406.096313	5.696087	36.6980
409.039062	5.752438	36.7277
412.003113	5.810159	36.7512
414.988647	5.869294	36.7680
417.995850	5.929915	36.7771
421.024811	5.992128	36.7783
424.075714	6.056056	36.7705
427.148743	6.121797	36.7524
430.244049	6.189438	36.7231
433.361786	6.259074	36.6827
436.502106	6.330822	36.6317
439.665161	6.404798	36.5699
442.851166	6.481056	36.4967
446.060242	6.559532	36.4122
449.292572	6.640084	36.3161
452.548340	6.722604	36.2074
455.827698	6.807086	36.0848
459.130798	6.893641	35.9474
462.457855	6.982474	35.7948
465.809021	7.073818	35.6259
469.184448	7.167842	35.4395
472.584381	7.264587	35.2339
476.008911	7.363934	35.0080
479.458252	7.465744	34.7616
482.932617	7.570059	34.4949
486.432159	7.677029	34.2075
489.957031	7.786706	33.8984
493.507477	7.899053	33.5666
497.083618	8.014080	33.2112
500.685699	8.131945	32.8308
504.313873	8.252824	32.4232
507.968323	8.376699	31.9863
511.649292	8.503361	31.5184
515.356934	8.632566	31.0190
519.091370	8.764198	30.4884
522.852966	8.898273	29.9264
526.641724	9.034695	29.3308
530.458008	9.173089	28.6985
534.301941	9.312870	28.0277
538.173706	9.453599	27.3190
542.073547	9.595223	26.5732
546.001648	9.737870	25.7888
549.958191	9.881424	24.9625
553.943420	10.025457	24.0930
557.957520	10.169334	23.1802
562.000671	10.312280	22.2245
566.073181	10.453467	21.2256
570.175171	10.592062	20.1833
574.306885	10.727234	19.0975
578.468567	10.858226	17.9687
582.660400	10.984434	16.7972
586.882568	11.105288	15.5834
591.135376	11.220059	14.3280
595.419006	11.327823	13.0327
599.733643	11.427414	11.6993
604.079590	11.517595	10.3297
608.456970	11.597196	8.9267
612.866089	11.665020	7.4950
617.307190	11.720169	6.0425
621.780457	11.762631	4.5770
626.286133	11.792861	3.1014
630.824463	11.810696	1.6150
635.395691	11.815328	0.1185
640.000000	11.806114	-1.3839
644.637695	11.783052	-2.8866
649.309021	11.746705	-4.3838
654.014160	11.697769	-5.8710
658.753418	11.636604	-7.3439
663.527039	11.563261	-8.7976
668.335205	11.478014	-10.2259
673.178284	11.381783	-11.6229
678.056396	11.275897	-12.9852
682.969849	11.161492	-14.3121
687.918945	11.039055	-15.6042
692.903870	10.908633	-16.8599
697.924927	10.770641	-18.0729
702.982422	10.626459	-19.2364
708.076477	10.477982	-20.3489
713.207520	10.326624	-21.4134
718.375732	10.173129	-22.4328
723.581360	10.018126	-23.4077
728.824707	9.862332	-24.3390
734.106079	9.706223	-25.2282
739.425720	9.550064	-26.0752
744.783936	9.394302	-26.8783
750.180908	9.239372	-27.6369
755.617065	9.085415	-28.3507
761.092529	8.932744	-29.0211
766.607727	8.781881	-29.6509
772.162903	8.633184	-30.2418
777.758301	8.486897	-30.7937
783.394287	8.343355	-31.3067
789.071045	8.202868	-31.7831
794.789001	8.065470	-32.2259
800.548340	7.931022	-32.6358
806.349487	7.799494	-33.0120
812.192627	7.671126	-33.3553
818.078125	7.546192	-33.6692
824.006226	7.424677	-33.9578
829.977295	7.306305	-34.2232
835.991699	7.190835	-34.4647
842.049622	7.078148	-34.6807
848.151428	6.968268	-34.8700
854.297485	6.861377	-35.0341
860.488098	6.757523	-35.1753
866.723572	6.656594	-35.2939
873.004211	6.558663	-35.3898
879.330322	6.463896	-35.4666
885.702332	6.372159	-35.5290
892.120483	6.283027	-35.5784
898.585144	6.196161	-35.6123
905.096680	6.111621	-35.6274
911.655396	6.029734	-35.6239
918.261597	5.950641	-35.6055
924.915710	5.874060	-35.5758
931.618042	5.799510	-35.5359
938.368896	5.726682	-35.4844
945.168762	5.655536	-35.4197
952.017822	5.586213	-35.3414
958.916504	5.518939	-35.2508
965.865234	5.453897	-35.1508
972.864319	5.391026	-35.0437
979.914062	5.330060	-34.9294
987.014954	5.270762	-34.8066
994.167236	5.213030	-34.6734
1001.371399	5.156882	-34.5294
1008.627747	5.102396	-34.3764
1015.936646	5.049605	-34.2180
1023.298584	4.998510	-34.0570
1030.713867	4.948944	-33.8943
1038.182739	4.900566	-33.7272
1045.705933	4.853201	-33.5509
1053.283447	4.807013	-33.3622
1060.916016	4.762246	-33.1630
1068.603882	4.718892	-32.9592
1076.347412	4.676737	-32.7550
1084.147095	4.635644	-32.5506
1092.003296	4.595558	-32.3448
1099.916382	4.556436	-32.1357
1107.886841	4.518342	-31.9216
1115.915039	4.481457	-31.7008
1124.001343	4.445855	-31.4738
1132.146362	4.411427	-31.2422
1140.350342	4.377904	-31.0078
1148.613770	4.344970	-30.7692
1156.937134	4.312592	-30.5229
1165.320801	4.281023	-30.2696
1173.765137	4.250382	-30.0141
1182.270752	4.220574	-29.7592
1190.838013	4.191573	-29.5042
1199.467285	4.163428	-29.2481
1208.159180	4.136071	-28.9907
1216.913940	4.109373	-28.7318
1225.732178	4.083263	-28.4709
1234.614380	4.057766	-28.2074
1243.560913	4.032971	-27.9405
1252.572266	4.008973	-27.6724
1261.648926	3.985748	-27.4067
1270.791382	3.963176	-27.1451
1280.000000	3.941147	-26.8865
1289.275391	3.919518	-26.6285
1298.618042	3.898240	-26.3673
1308.028320	3.877476	-26.1008
1317.506836	3.857388	-25.8317
1327.054077	3.837988	-25.5639
1336.670410	3.819213	-25.2980
1346.356567	3.800969	-25.0328
1356.112793	3.783070	-24.7677
1365.939697	3.765340	-24.5018
1375.837891	3.747793	-24.2336
1385.807739	3.730524	-23.9622
1395.849854	3.713631	-23.6865
1405.964844	3.697317	-23.4060
1416.152954	3.681723	-23.1244
1426.415039	3.666772	-22.8463
1436.751465	3.652337	-22.5738
1447.162720	3.638320	-22.3060
1457.649414	3.624585	-22.0422
1468.212158	3.611045	-21.7814
1478.851440	3.597718	-21.5217
1489.567871	3.584625	-21.2609
1500.361816	3.571748	-20.9982
1511.234131	3.559083	-20.7330
1522.185059	3.546685	-20.4658
1533.215454	3.534603	-20.1981
1544.325806	3.522856	-19.9302
1555.516602	3.511496	-19.6614
1566.788574	3.500574	-19.3915
1578.142090	3.490052	-19.1205
1589.578003	3.479870	-18.8490
1601.096680	3.469953	-18.5799
1612.698975	3.460212	-18.3151
1624.385254	3.450626	-18.0534
1636.156250	3.441188	-17.7927
1648.012451	3.431840	-17.5307
1659.954590	3.422572	-17.2658
1671.983398	3.413473	-16.9985
1684.099243	3.404683	-16.7305
1696.302856	3.396312	-16.4631
1708.594971	3.388349	-16.1963
1720.976196	3.380723	-15.9304
1733.447144	3.373390	-15.6670
1746.008423	3.366308	-15.4070
1758.660645	3.359385	-15.1484
1771.404663	3.352539	-14.8880
1784.240967	3.345764	-14.6249
1797.170288	3.339090	-14.3608
1810.193359	3.332575	-14.0975
1823.310791	3.326256	-13.8358
1836.523193	3.320130	-13.5752
1849.831421	3.314208	-13.3158
1863.236084	3.308509	-13.0578
1876.737793	3.303067	-12.7998
1890.337524	3.297900	-12.5396
1904.035645	3.292998	-12.2762
1917.833008	3.288339	-12.0108
1931.730469	3.283909	-11.7456
1945.728638	3.279693	-11.4823
1959.828125	3.275711	-11.2212
1974.029907	3.272076	-10.9610
1988.334473	3.268944	-10.7007
2002.742798	3.266374	-10.4405
2017.255493	3.264256	-10.1809
2031.873291	3.262420	-9.9227
2046.597168	3.260779	-9.6684
2061.427734	3.259328	-9.4226
2076.365479	3.258046	-9.1896
2091.411865	3.256806	-8.9705
2106.566895	3.255354	-8.7637
2121.832031	3.253430	-8.5645
2137.207764	3.250904	-8.3663
2152.694824	3.247840	-8.1629
2168.294189	3.244476	-7.9498
2184.006592	3.241155	-7.7248
2199.832764	3.238154	-7.4884
2215.773682	3.235587	-7.2433
2231.830078	3.233454	-6.9924
2248.002686	3.231718	-6.7386
2264.292725	3.230344	-6.4853
2280.700684	3.229328	-6.2355
2297.227539	3.228689	-5.9907
2313.874268	3.228437	-5.7499
2330.641602	3.228560	-5.5113
2347.530273	3.229049	-5.2735
2364.541504	3.229897	-5.0385
2381.676025	3.231055	-4.8108
2398.934570	3.232446	-4.5930
2416.318359	3.234001	-4.3837
2433.827881	3.235693	-4.1804
2451.464355	3.237545	-3.9821
2469.228760	3.239550	-3.7891
2487.121826	3.241620	-3.6026
2505.144531	3.243647	-3.4237
2523.297852	3.245557	-3.2520
2541.582764	3.247277	-3.0863
2560.000000	3.248726	-2.9256
2578.550781	3.249816	-2.7695
2597.236084	3.250481	-2.6165
2616.056641	3.250716	-2.4644
2635.013672	3.250602	-2.3103
2654.108154	3.250247	-2.1527
2673.340820	3.249731	-1.9917
2692.713135	3.249114	-1.8285
2712.225586	3.248491	-1.6648
2731.879395	3.247972	-1.5014
2751.675781	3.247623	-1.3361
2771.615479	3.247423	-1.1645
2791.699707	3.247284	-0.9840
2811.929688	3.247099	-0.7969
2832.305908	3.246746	-0.6095
2852.830078	3.246205	-0.4277
2873.502930	3.245640	-0.2519
2894.325439	3.245183	-0.0783
2915.298828	3.244742	0.0967
2936.424316	3.244179	0.2746
2957.702881	3.243516	0.4551
2979.135742	3.242903	0.6380
3000.723633	3.242504	0.8235
3022.468262	3.242451	1.0111
3044.370117	3.242813	1.1999
3066.430908	3.243552	1.3891
3088.651611	3.244530	1.5784
3111.033203	3.245574	1.7685
3133.577148	3.246592	1.9591
3156.284180	3.247603	2.1490
3179.156006	3.248687	2.3374
3202.193359	3.249913	2.5243
3225.397949	3.251300	2.7102
3248.770508	3.252818	2.8955
3272.312500	3.254410	3.0811
3296.024902	3.256032	3.2677
3319.909180	3.257699	3.4541
3343.966797	3.259495	3.6375
3368.198486	3.261536	3.8176
3392.605713	3.263857	3.9964
3417.189941	3.266365	4.1760
3441.952393	3.268928	4.3572
3466.894287	3.271454	4.5389
3492.016846	3.273921	4.7192
3517.321289	3.276346	4.8970
3542.809326	3.278764	5.0740
3568.481934	3.281232	5.2519
3594.340576	3.283778	5.4288
3620.386719	3.286414	5.6020
3646.621582	3.289132	5.7712
3673.046387	3.291893	5.9382
3699.662842	3.294718	6.1053
3726.472168	3.297700	6.2741
3753.475586	3.300855	6.4448
3780.675049	3.304106	6.6153
3808.071289	3.307383	6.7835
3835.666016	3.310651	6.9491
3863.460938	3.313876	7.1126
3891.457275	3.317029	7.2740
3919.656250	3.320139	7.4327
3948.059814	3.323292	7.5885
3976.668945	3.326543	7.7423
4005.485596	3.329888	7.8955
4034.510986	3.333316	8.0498
4063.746582	3.336829	8.2054
4093.194336	3.340446	8.3611
4122.855469	3.344197	8.5158
4152.730957	3.348088	8.6691
4182.823730	3.352055	8.8215
4213.133789	3.356014	8.9738
4243.664062	3.359884	9.1253
4274.415527	3.363606	9.2743
4305.389648	3.367188	9.4206
4336.588379	3.370697	9.5654
4368.013184	3.374195	9.7098
4399.665527	3.377715	9.8529
4431.547363	3.381254	9.9934
4463.660156	3.384730	10.1319
4496.005371	3.388044	10.2707
4528.585449	3.391216	10.4119
4561.401367	3.394351	10.5555
4594.455078	3.397498	10.7000
4627.748535	3.400609	10.8448
4661.283203	3.403641	10.9911
4695.060547	3.406664	11.1401
4729.083008	3.409817	11.2908
4763.352051	3.413170	11.4407
4797.869141	3.416680	11.5896
4832.636719	3.420227	11.7385
4867.655762	3.423691	11.8880
4902.928711	3.427011	12.0379
4938.457520	3.430159	12.1882
4974.243652	3.433165	12.3398
5010.289062	3.436150	12.4943
5046.595703	3.439289	12.6528
5083.165527	3.442723	12.8145
5120.000000	3.446484	12.9781
5157.101562	3.450514	13.1426
5194.472168	3.454732	13.3076
5232.113281	3.459052	13.4720
5270.027344	3.463387	13.6347
5308.216309	3.467659	13.7961
5346.681641	3.471826	13.9585
5385.426270	3.475958	14.1234
5424.451172	3.480223	14.2906
5463.758789	3.484782	14.4592
5503.351562	3.489686	14.6280
5543.230957	3.494854	14.7963
5583.399414	3.500138	14.9638
5623.859375	3.505438	15.1299
5664.611816	3.510774	15.2944
5705.660156	3.516239	15.4575
5747.005859	3.521870	15.6197
5788.650879	3.527623	15.7824
5830.597656	3.533423	15.9474
5872.848633	3.539213	16.1153
5915.405762	3.544975	16.2846
5958.271484	3.550727	16.4515
6001.447266	3.556534	16.6122
6044.936523	3.562470	16.7656
6088.740234	3.568543	16.9137
6132.861816	3.574713	17.0600
6177.303223	3.580950	17.2082
6222.066406	3.587255	17.3605
6267.154297	3.593634	17.5163
6312.568359	3.600084	17.6734
6358.312012	3.606592	17.8300
6404.386719	3.613155	17.9851
6450.795898	3.619772	18.1389
6497.541016	3.626430	18.2916
6544.625000	3.633129	18.4438
6592.049805	3.639912	18.5952
6639.818359	3.646844	18.7448
6687.933594	3.653919	18.8922
6736.396973	3.661058	19.0380
6785.211426	3.668206	19.1836
6834.379883	3.675366	19.3312
6883.904785	3.682550	19.4814
6933.788574	3.689744	19.6328
6984.033691	3.696911	19.7832
7034.642578	3.704092	19.9322
7085.618652	3.711516	20.0816
7136.963867	3.719387	20.2334
7188.681152	3.727557	20.3866
7240.773438	3.735693	20.5379
7293.243164	3.743618	20.6852
7346.092773	3.751385	20.8290
7399.325684	3.759140	20.9709
7452.944336	3.766984	21.1127
7506.951172	3.774953	21.2547
7561.350098	3.783052	21.3966
7616.142578	3.791282	21.5388
7671.332031	3.799678	21.6824
7726.921875	3.808280	21.8272
7782.914551	3.817034	21.9716
7839.312500	3.825771	22.1142
7896.119629	3.834326	22.2552
7953.337891	3.842670	22.3956
8010.971191	3.850909	22.5361
8069.021973	3.859171	22.6761
8127.493164	3.867554	22.8146
8186.388672	3.876149	22.9511
8245.710938	3.885007	23.0858
8305.461914	3.894074	23.2197
8365.647461	3.903221	23.3543
8426.267578	3.912419	23.4904
8487.328125	3.921759	23.6284
8548.831055	3.931231	23.7680
8610.779297	3.940724	23.9089
8673.176758	3.950193	24.0507
8736.026367	3.959687	24.1927
8799.331055	3.969288	24.3340
8863.094727	3.979054	24.4729
8927.320312	3.988966	24.6076
8992.010742	3.998975	24.7371
9057.170898	4.009068	24.8627
9122.802734	4.019226	24.9866
9188.910156	4.029404	25.1111
9255.497070	4.039562	25.2375
9322.566406	4.049737	25.3656
9390.121094	4.060017	25.4942
9458.166016	4.070478	25.6224
9526.704102	4.081164	25.7500
9595.738281	4.092040	25.8776
9665.273438	4.102975	26.0058
9735.311523	4.113863	26.1346
9805.857422	4.124699	26.2627
9876.915039	4.135511	26.3884
9948.487305	4.146316	26.5104
10020.578125	4.157163	26.6294
10093.191406	4.168100	26.7483
10166.331055	4.179121	26.8694
10240.000000	4.190191	26.9929
10314.203125	4.201279	27.1172
10388.944336	4.212343	27.2414
10464.226562	4.223352	27.3652
10540.054688	4.234372	27.4882
10616.432617	4.245525	27.6104
10693.363281	4.256899	27.7325
10770.852539	4.268497	27.8552
10848.902344	4.280273	27.9780
10927.517578	4.292219	28.0997
11006.703125	4.304338	28.2197
11086.461914	4.316576	28.3384
11166.798828	4.328825	28.4571
11247.718750	4.341013	28.5775
11329.223633	4.353159	28.7008
11411.320312	4.365329	28.8253
11494.011719	4.377605	28.9491
11577.301758	4.390063	29.0721
11661.195312	4.402709	29.1950
11745.697266	4.415493	29.3173
11830.811523	4.428386	29.4384
11916.542969	4.441397	29.5579
12002.894531	4.454511	29.6752
12089.873047	4.467672	29.7902
12177.480469	4.480873	29.9031
12265.723633	4.494218	30.0148
12354.606445	4.507801	30.1259
12444.132812	4.521567	30.2366
12534.308594	4.535367	30.3471
12625.136719	4.549128	30.4575
12716.624023	4.562926	30.5681
12808.773438	4.576878	30.6792
12901.591797	4.591046	30.7910
12995.082031	4.605399	30.9034
13089.250000	4.619878	31.0158
13184.099609	4.634468	31.1267
13279.636719	4.649189	31.2342
13375.867188	4.664056	31.3376
13472.793945	4.679023	31.4376
13570.422852	4.693998	31.5366
13668.759766	4.708943	31.6380
13767.809570	4.723978	31.7450
13867.577148	4.739345	31.8582
13968.067383	4.755229	31.9743
14069.285156	4.771492	32.0873
14171.237305	4.787614	32.1910
14273.927734	4.803224	32.2809
14377.362305	4.818466	32.3577
14481.546875	4.833626	32.4282
14586.486328	4.848785	32.5008
14692.185547	4.863948	32.5800
14798.651367	4.879209	32.6655
14905.888672	4.894696	32.7545
15013.902344	4.910450	32.8437
15122.700195	4.926409	32.9308
15232.285156	4.942477	33.0153
15342.664062	4.958582	33.0983
15453.843750	4.974681	33.1814
15565.829102	4.990744	33.2657
15678.625000	5.006753	33.3511
15792.239258	5.022726	33.4369
15906.675781	5.038710	33.5225
16021.942383	5.054740	33.6078
16138.043945	5.070791	33.6924
16254.986328	5.086793	33.7753
16372.777344	5.102635	33.8547
16491.421875	5.118164	33.9296
16610.923828	5.133277	34.0012
16731.294922	5.148071	34.0729
16852.535156	5.162868	34.1490
16974.656250	5.178015	34.2314
17097.662109	5.193496	34.3188
17221.558594	5.208971	34.4081
17346.353516	5.224280	34.4989
17472.052734	5.239578	34.5928
17598.662109	5.255085	34.6906
17726.189453	5.270961	34.7910
17854.640625	5.287293	34.8911
17984.021484	5.304062	34.9891
18114.341797	5.321151	35.0849
18245.605469	5.338439	35.1794
18377.820312	5.355895	35.2727
18510.994141	5.373507	35.3644
18645.132812	5.391225	35.4549
18780.242188	5.408998	35.5455
18916.332031	5.426854	35.6377
19053.408203	5.444888	35.7324
19191.476562	5.463173	35.8294
19330.546875	5.481712	35.9274
19470.623047	5.500344	36.0238
19611.714844	5.518501	36.1145
19753.830078	5.534832	36.1926
19896.974609	5.547070	36.2490
