* Measurement data measured by REW V5.30.8
* Source: Trace Arithmetic result A + B
* Format: Trace Arithmetic result A + B
* Dated: Feb 10, 2024 1:40:37 PM
* REW Settings:
*  C-weighting compensation: Off
*  Target level: 75.0 dB
* Note: Trace Arithmetic A plus B A = Port Near Field B = Woofer Near Field
* Measurement: Woofer Port Near Field
* Smoothing: 1/24 octave
* Frequency Step: 1/96 octave
* Start Frequency: 20.145 Hz
*
* Freq(Hz)	SPL(dB)	Phase(degrees)
20.144928	84.9824	178.1583
20.290907	85.0848	177.642
20.437943	85.2308	176.8569
20.586044	85.3973	176.0332
20.73522	85.5708	175.1907
20.885475	85.7458	174.3096
21.036821	85.9224	173.4875
21.189262	86.099	172.6826
21.342808	86.277	171.8493
21.497467	86.4586	171.0741
21.653246	86.6453	170.3045
21.810154	86.837	169.5327
21.968201	87.033	168.7002
22.12739	87.2357	167.889
22.287735	87.4425	167.0438
22.449242	87.6505	166.1088
22.611917	87.8613	165.1763
22.775772	88.0712	164.2001
22.940815	88.2752	163.1372
23.107054	88.477	162.0942
23.274498	88.6739	161.0342
23.443153	88.8639	159.9215
23.613033	89.0519	158.8662
23.784142	89.2379	157.8276
23.956491	89.4199	156.7606
24.130091	89.6069	155.7635
24.304947	89.797	154.7802
24.481071	89.99	153.7496
24.65847	90.1891	152.7606
24.837156	90.3923	151.7525
25.017136	90.5986	150.7168
25.198421	90.8026	149.6
25.38102	91.0058	148.5121
25.564941	91.2071	147.4114
25.750195	91.4011	146.2606
25.93679	91.5955	145.1806
26.124741	91.7908	144.131
26.314051	91.9868	143.0592
26.504732	92.1933	142.0658
26.696796	92.4118	141.0748
26.890253	92.6408	139.9968
27.085112	92.8854	138.9045
27.281382	93.14	137.7031
27.479073	93.394	136.3084
27.678198	93.6466	134.8188
27.878765	93.8853	133.1861
28.080786	94.0983	131.3782
28.284271	94.2851	129.5595
28.489231	94.4399	127.7308
28.695675	94.5618	125.9653
28.903616	94.6518	124.2692
29.113064	94.7256	122.8234
29.324028	94.7917	121.6062
29.536524	94.8617	120.5682
29.750557	94.9548	119.8004
29.966141	95.0798	119.1835
30.183289	95.2408	118.5641
30.40201	95.441	117.9731
30.622314	95.6712	117.2664
30.844217	95.9162	116.33
31.067726	96.1705	115.2723
31.292856	96.4189	114.0482
31.519617	96.6519	112.6338
31.74802	96.8704	111.2062
31.978081	97.0749	109.753
32.209808	97.2629	108.2451
32.443211	97.4494	106.8321
32.67831	97.635	105.4481
32.915108	97.8238	104.0772
33.153625	98.0138	102.6258
33.393871	98.2116	101.2012
33.635857	98.4085	99.7205
33.879597	98.5975	98.1124
34.125103	98.7814	96.5221
34.372387	98.9544	94.9035
34.621464	99.1124	93.216
34.872345	99.2645	91.6215
35.125042	99.4097	90.0712
35.379574	99.5467	88.5048
35.635948	99.689	87.0598
35.89418	99.8343	85.657
36.154285	99.9793	84.209
36.416275	100.1337	82.8389
36.680161	100.2932	81.4602
36.945961	100.4512	79.9872
37.213688	100.6159	78.5536
37.483353	100.7805	77.0822
37.754974	100.9444	75.5701
38.028561	101.1014	73.9435
38.304131	101.2592	72.3527
38.581699	101.4132	70.7303
38.861279	101.5562	69.0085
39.142883	101.6983	67.3447
39.426529	101.8354	65.671
39.712231	101.9624	63.9153
40	102.0886	62.2298
40.289856	102.21	60.5384
40.581814	102.32	58.7639
40.875885	102.4276	57.0644
41.172089	102.5281	55.3723
41.47044	102.6131	53.6233
41.77095	102.6958	51.9901
42.073643	102.7726	50.4091
42.378525	102.8416	48.808
42.685616	102.9145	47.3422
42.994934	102.9905	45.9205
43.306492	103.0667	44.5257
43.620308	103.1377	43.0607
43.936401	103.2118	41.678
44.25478	103.2812	40.2977
44.57547	103.3372	38.846
44.898483	103.3937	37.4984
45.223835	103.4453	36.1802
45.551544	103.4903	34.8073
45.88163	103.543	33.5366
46.214108	103.5999	32.2695
46.548996	103.6529	30.9068
46.886307	103.7148	29.6076
47.226067	103.7779	28.2873
47.568283	103.8319	26.8673
47.912983	103.8911	25.5283
48.260181	103.9495	24.1942
48.609894	103.9985	22.7827
48.962143	104.055	21.4662
49.31694	104.1106	20.1552
49.674313	104.1654	18.8458
50.034271	104.2114	17.4476
50.396843	104.2633	16.1375
50.762039	104.3134	14.8299
51.129883	104.3534	13.4389
51.500389	104.4006	12.1455
51.873581	104.4469	10.8628
52.249481	104.4849	9.5022
52.628101	104.5324	8.2439
53.009464	104.5801	6.9964
53.393593	104.6211	5.6639
53.780506	104.6698	4.4218
54.170223	104.7198	3.174
54.562763	104.7588	1.827
54.958145	104.8029	0.5703
55.356396	104.8441	-0.678600000000001
55.75753	104.8826	-1.9132
56.161572	104.9116	-3.2299
56.568542	104.9502	-4.4549
56.978462	104.9879	-5.6954
57.39135	105.0119	-7.0489
57.807232	105.0379	-8.3115
58.226128	105.059	-9.5485
58.648056	105.065	-10.8322
59.073048	105.0843	-11.9719
59.501114	105.1067	-13.0854
59.932281	105.1217	-14.2973
60.366577	105.1423	-15.4232
60.80402	105.1531	-16.5312
61.244629	105.1441	-17.6705
61.688435	105.1451	-18.6127
62.135452	105.1532	-19.4592
62.585712	105.1672	-20.3543
63.039234	105.2076	-21.1642
63.49604	105.2592	-22.0251
63.956161	105.3128	-22.9403
64.419617	105.3528	-23.9879
64.886421	105.4028	-24.9511
65.356621	105.4519	-25.9215
65.830215	105.4899	-27.0029
66.307251	105.5392	-28.0036
66.787743	105.5897	-29.0228
67.271713	105.6267	-30.1574
67.759193	105.6744	-31.2071
68.250206	105.7213	-32.2722
68.744774	105.7523	-33.4572
69.242928	105.7933	-34.5695
69.74469	105.8277	-35.7101
70.250084	105.8397	-36.9654
70.759148	105.8532	-38.0972
71.271896	105.8569	-39.1538
71.788361	105.8439	-40.1972
72.308571	105.8518	-41.0313
72.83255	105.874	-41.8064
73.360321	105.9123	-42.5959
73.891922	105.9473	-43.5555
74.427376	105.9999	-44.5025
74.966705	106.0507	-45.5264
75.509949	106.0807	-46.712
76.057121	106.1177	-47.8602
76.608261	106.143	-49.0863
77.163399	106.129	-50.4748
77.722557	106.0944	-51.7312
78.285767	106.0251	-52.7923
78.853058	105.9261	-53.6067
79.424461	105.861	-53.9502
80	105.8452	-54.0722
80.579712	105.8652	-54.3007
81.163628	105.9375	-54.5982
81.75177	106.0241	-55.1027
82.344177	106.0941	-55.8711
82.94088	106.1729	-56.6433
83.541901	106.2449	-57.4762
84.147285	106.3102	-58.3448
84.75705	106.3522	-59.3394
85.371231	106.4077	-60.2617
85.989868	106.4575	-61.2151
86.612984	106.4795	-62.2924
87.240616	106.5065	-63.2664
87.872803	106.5207	-64.1825
88.50956	106.5097	-65.0866
89.15094	106.5241	-65.7782
89.796967	106.5548	-66.4203
90.44767	106.5818	-67.1995
91.103088	106.6327	-67.9713
91.76326	106.6799	-68.8282
92.428215	106.6959	-69.8238
93.097992	106.7203	-70.7041
93.772614	106.7359	-71.5119
94.452133	106.7349	-72.3303
95.136566	106.7638	-73.0129
95.825966	106.804	-73.7277
96.520363	106.8503	-74.525
97.219788	106.8723	-75.5258
97.924286	106.8999	-76.5372
98.633881	106.8968	-77.57
99.348625	106.8408	-78.5454
100.068542	106.7968	-79.1385
100.793686	106.7741	-79.4753
101.524078	106.7681	-79.8194
102.259766	106.8146	-80.1419
103.000778	106.8795	-80.5973
103.747162	106.9275	-81.2804
104.498962	106.9955	-81.997
105.256203	107.0527	-82.8213
106.018929	107.0717	-83.8116
106.787186	107.0902	-84.7177
107.561012	107.0889	-85.5217
108.340446	107.0589	-86.2398
109.125526	107.0629	-86.723
109.91629	107.0851	-87.1484
110.712791	107.1245	-87.5921
111.51506	107.1505	-88.1737
112.323143	107.2061	-88.735
113.137085	107.265	-89.3644
113.956924	107.3	-90.1457
114.7827	107.3531	-90.9091
115.614464	107.3954	-91.716
116.452255	107.4004	-92.5977
117.296112	107.4199	-93.3352
118.146095	107.4407	-93.9848
119.002228	107.4447	-94.6556
119.864563	107.4846	-95.2523
120.733154	107.5338	-95.9087
121.60804	107.5588	-96.7272
122.489258	107.6033	-97.5462
123.376869	107.6358	-98.3992
124.270905	107.6318	-99.3019
125.171425	107.6477	-100.0696
126.078468	107.6666	-100.7782
126.992081	107.6949	-101.4661
127.912323	107.7059	-102.2693
128.839233	107.7453	-103.1243
129.772842	107.7729	-104.1228
130.713242	107.7469	-105.2445
131.660431	107.7217	-106.2232
132.614502	107.6817	-107.0707
133.575485	107.6097	-107.875
134.543427	107.5588	-108.5029
135.518387	107.5111	-108.9621
136.500412	107.4531	-109.3348
137.489548	107.4446	-109.6379
138.485855	107.4464	-110.0123
139.48938	107.4214	-110.4438
140.500168	107.4312	-110.7506
141.518295	107.4592	-111.0454
142.543793	107.4742	-111.469
143.576721	107.5264	-111.9527
144.617142	107.5786	-112.5659
145.6651	107.6221	-113.3162
146.720642	107.6131	-114.214
147.783844	107.6038	-115.0328
148.854752	107.5766	-115.6741
149.933411	107.5226	-116.1372
151.019897	107.5195	-116.419
152.114243	107.5465	-116.6702
153.216522	107.5705	-117.0532
154.326797	107.6407	-117.5775
155.445114	107.709	-118.365
156.571533	107.721	-119.445
157.706116	107.7153	-120.5629
158.848923	107.6678	-121.4936
160	107.5818	-122.1493
161.159424	107.5435	-122.613
162.327255	107.5172	-123.1337
163.50354	107.4542	-123.7594
164.688354	107.402	-124.2591
165.88176	107.3489	-124.5265
167.083801	107.3169	-124.6171
168.294571	107.2829	-124.7172
169.514099	107.2999	-124.8665
170.742462	107.326	-125.0895
171.979736	107.33	-125.3887
173.225967	107.3713	-125.7194
174.481232	107.4206	-126.1266
175.745605	107.4426	-126.6785
177.019119	107.4889	-127.3849
178.30188	107.5102	-128.2488
179.593933	107.4662	-129.1518
180.89534	107.4216	-129.8923
182.206177	107.3621	-130.4068
183.52652	107.2751	-130.6936
184.85643	107.2386	-130.7656
186.195984	107.2321	-130.7551
187.545227	107.2241	-130.7772
188.904266	107.2716	-130.8481
190.273132	107.3442	-131.0296
191.651932	107.4347	-131.4387
193.040726	107.4907	-132.1509
194.439575	107.5502	-133.1122
195.848572	107.5678	-134.1589
197.267761	107.5198	-135.1071
198.69725	107.4813	-135.8723
200.137085	107.4408	-136.4649
201.587372	107.3778	-136.9597
203.048157	107.3523	-137.4664
204.519531	107.3268	-138.0077
206.001556	107.2638	-138.525
207.494324	107.2262	-139.0025
208.997925	107.1856	-139.4289
210.512405	107.1126	-139.7727
212.037857	107.074	-140.0216
213.574371	107.0492	-140.1877
215.122025	107.0102	-140.3553
216.680893	107.0115	-140.6045
218.251053	107.0177	-140.8892
219.832581	107.0298	-141.2331
221.425583	107.0118	-141.6637
223.030121	107.0147	-142.227
224.646286	106.9997	-142.8383
226.27417	106.9377	-143.41
227.913849	106.8875	-143.9829
229.565399	106.8163	-144.5077
231.228928	106.6923	-144.8536
232.90451	106.584	-144.9468
234.592224	106.4875	-144.6676
236.292191	106.4025	-144.0457
238.004456	106.406	-143.4136
239.729126	106.4533	-142.9713
241.466309	106.4963	-142.6941
243.21608	106.5805	-142.5961
244.978516	106.6787	-142.6142
246.753738	106.7567	-142.7713
248.541809	106.8656	-143.1869
250.34285	106.9694	-143.799
252.156937	107.0591	-144.6279
253.984161	107.0901	-145.6573
255.824646	107.0996	-146.8839
257.678467	107.054	-148.0103
259.545685	106.943	-148.7807
261.426483	106.8533	-149.254
263.320862	106.7814	-149.4587
265.229004	106.7114	-149.5141
267.15097	106.6933	-149.7086
269.086853	106.6781	-150.0125
271.036774	106.6291	-150.2507
273.000824	106.6097	-150.4476
274.979095	106.6031	-150.5876
276.97171	106.5821	-150.6807
278.97876	106.6004	-150.8705
281.000336	106.6284	-151.1429
283.036591	106.6324	-151.4903
285.087585	106.6532	-152.0226
287.153442	106.661	-152.5841
289.234283	106.6585	-153.1407
291.3302	106.6205	-153.6505
293.441284	106.5938	-154.2476
295.567688	106.5479	-154.8021
297.709503	106.4609	-155.1249
299.866821	106.4037	-155.2573
302.039795	106.3744	-155.1941
304.228485	106.3574	-155.1069
306.433044	106.3859	-155.2994
308.653595	106.4112	-155.6888
310.890228	106.3942	-156.0982
313.143066	106.3883	-156.5379
315.412231	106.3791	-156.8945
317.697845	106.3541	-157.0989
320	106.3738	-157.3832
322.318848	106.4072	-157.8323
324.65451	106.4112	-158.4538
327.00708	106.4104	-159.3369
329.376709	106.3714	-160.2392
331.763519	106.2981	-161.0377
334.167603	106.1831	-161.4516
336.589142	106.0966	-161.6472
339.028198	106.0339	-161.7031
341.484924	105.9819	-161.6449
343.959473	105.979	-161.8204
346.451935	105.9818	-162.1921
348.962463	105.9498	-162.6334
351.491211	105.9184	-163.185
354.038239	105.8748	-163.6167
356.60376	105.8138	-163.9178
359.187866	105.7729	-164.4368
361.79068	105.7078	-165.0638
364.412354	105.5838	-165.507
367.05304	105.4604	-165.6901
369.71286	105.3519	-165.5275
372.391968	105.2549	-165.1361
375.090454	105.203	-164.9034
377.808533	105.149	-164.7963
380.546265	105.0657	-164.651
383.303864	104.9297	-164.0932
386.081451	104.8062	-163.085
388.87915	104.7133	-161.4471
391.697144	104.6863	-159.0569
394.535522	104.8364	-156.319
397.394501	105.1761	-154.0992
400.27417	105.5921	-153.6131
403.174744	105.9526	-155.2356
406.096313	106.1449	-157.811
409.039062	106.1759	-160.1883
412.003113	106.149	-162.1752
414.988647	106.0767	-163.7708
417.99585	105.9347	-164.9437
421.024811	105.7673	-165.7799
424.075714	105.6036	-166.0904
427.148743	105.4756	-165.9802
430.244049	105.4267	-165.9849
433.361786	105.4006	-166.21
436.502106	105.3612	-166.6452
439.665161	105.2822	-166.9513
442.851166	105.2155	-167.0714
446.060242	105.1777	-166.8976
449.292572	105.1707	-166.6633
452.54834	105.2076	-166.8249
455.827698	105.2363	-167.2299
459.130798	105.2233	-167.6807
462.457855	105.1868	-168.3149
465.809021	105.107	-168.7004
469.184448	105.015	-168.4593
472.584381	104.9911	-168.073
476.008911	105.0138	-167.8911
479.458252	105.0268	-167.9087
482.932617	105.0423	-168.0308
486.432159	105.0696	-167.9298
489.957031	105.1196	-167.7591
493.507477	105.2038	-168.0296
497.083618	105.2717	-168.5791
500.685699	105.3114	-169.2057
504.313873	105.3104	-169.736
507.968323	105.3048	-170.2418
511.649292	105.3021	-170.5396
515.356934	105.3031	-170.7228
519.09137	105.3241	-171.1336
522.852966	105.343	-171.5253
526.641724	105.357	-171.8364
530.458008	105.3795	-172.4469
534.301941	105.373	-173.1789
538.173706	105.318	-173.7038
542.073547	105.2571	-174.0448
546.001648	105.2091	-174.0825
549.958191	105.1811	-173.8899
553.94342	105.1959	-173.8611
557.95752	105.2285	-173.9303
562.000671	105.2575	-174.0169
566.073181	105.2919	-174.3998
570.175171	105.2981	-174.8478
574.306885	105.2822	-175.0953
578.468567	105.2672	-174.8941
582.6604	105.3149	-174.6746
586.882568	105.3935	-174.8613
591.135376	105.4285	-175.3085
595.419006	105.436	-175.65
599.733643	105.4583	-175.6082
604.07959	105.5203	-175.4169
608.45697	105.6283	-175.6923
612.866089	105.7101	-176.4927
617.30719	105.7051	-177.2963
621.780457	105.6669	-177.6531
626.286133	105.6624	-177.5134
630.824463	105.6994	-177.3897
635.395691	105.7537	-177.6227
640	105.8059	-177.7917
644.637695	105.8629	-177.84
649.309021	105.9389	-178.1199
654.01416	106.0147	-178.4377
658.753418	106.0984	-178.7887
663.527039	106.1734	-179.205
668.335205	106.248	-179.8191
673.178284	106.3003	179.4786
678.056396	106.3143	178.9161
682.969849	106.3254	178.4773
687.918945	106.3445	178.2079
692.90387	106.3775	178.169
697.924927	106.4494	178.0134
702.982422	106.5381	177.726
708.076477	106.6331	177.5417
713.20752	106.7726	177.2375
718.375732	106.938	176.5201
723.58136	107.067	175.3539
728.824707	107.1403	173.8507
734.106079	107.1514	172.4593
739.42572	107.0994	171.3227
744.783936	107.0224	170.7145
750.180908	107.0133	171.0009
755.617065	107.151	171.3402
761.092529	107.387	170.9516
766.607727	107.6505	169.5276
772.162903	107.8929	167.4806
777.758301	108.1259	165.0685
783.394287	108.3562	161.6632
789.071045	108.4793	156.9275
794.789001	108.3783	151.3773
800.54834	108.0254	145.5207
806.349487	107.4133	140.0261
812.192627	106.5583	135.4667
818.078125	105.5211	131.9494
824.006226	104.3447	129.4695
829.977295	103.0457	127.9129
835.991699	101.6443	127.2633
842.049622	100.2087	129.7622
848.151428	99.1757	147.0482
854.297485	99.461	-165.9243
860.488098	100.9722	-144.9139
866.723572	102.6502	-144.7188
873.004211	103.9472	-149.6302
879.330322	104.8131	-155.6279
885.702332	105.31	-161.2552
892.120483	105.543	-165.7345
898.585144	105.6497	-169.2142
905.09668	105.6703	-172.0765
911.655396	105.6013	-174.205
918.261597	105.5018	-175.5702
924.91571	105.4202	-176.4614
931.618042	105.3332	-177.2747
938.368896	105.1886	-178.0357
945.168762	104.9838	-177.7388
952.017822	104.8638	-175.9468
958.916504	104.9319	-174.238
965.865234	105.0869	-173.5511
972.864319	105.2329	-173.3085
979.914062	105.3899	-173.4144
987.014954	105.5327	-174.1097
994.167236	105.6094	-175.285
1001.371399	105.5974	-176.4841
1008.627747	105.51	-177.6777
1015.936646	105.3396	-178.5918
1023.298584	105.0926	-178.8239
1030.713867	104.8371	-178.1453
1038.182739	104.6454	-176.994
1045.705933	104.4984	-175.9531
1053.283447	104.3448	-175.0977
1060.916016	104.1619	-173.8553
1068.603882	103.9879	-171.6814
1076.347412	103.9152	-168.612
1084.147095	104.0231	-164.8706
1092.003296	104.3711	-160.98
1099.916382	104.9541	-158.201
1107.886841	105.632	-157.4888
1115.915039	106.2199	-158.8579
1124.001343	106.6089	-161.2416
1132.146362	106.8387	-163.7473
1140.350342	106.9653	-166.1388
1148.61377	106.9893	-168.3403
1156.937134	106.9519	-170.0264
1165.320801	106.9304	-171.1477
1173.765137	106.9594	-172.1802
1182.270752	107.0229	-173.5313
1190.838013	107.0834	-175.3649
1199.467285	107.0564	-177.7345
1208.15918	106.8956	179.9252
1216.91394	106.6589	178.2828
1225.732178	106.4279	177.3011
1234.61438	106.2431	176.5206
1243.560913	106.1082	175.7647
1252.572266	105.9982	174.8247
1261.648926	105.8813	173.574
1270.791382	105.7394	172.3018
1280	105.5933	171.1045
1289.275391	105.4593	169.9446
1298.618042	105.3533	168.5422
1308.02832	105.2651	166.7411
1317.506836	105.1451	164.3986
1327.054077	104.9578	161.4898
1336.67041	104.6605	157.9642
1346.356567	104.1785	154.0973
1356.112793	103.4573	150.451
1365.939697	102.4839	148.0589
1375.837891	101.3089	148.3582
1385.807739	100.1354	153.7184
1395.849854	99.426	164.5384
1405.964844	99.448	174.1286
1416.152954	99.8794	178.6454
1426.415039	100.4139	-179.7756
1436.751465	100.9329	179.9511
1447.16272	101.3522	178.1374
1457.649414	101.6326	175.3759
1468.212158	101.7468	171.9454
1478.85144	101.6658	168.3718
1489.567871	101.4361	165.0244
1500.361816	101.0922	161.8536
1511.234131	100.6252	159.1022
1522.185059	100.0414	156.877
1533.215454	99.3265	155.5961
1544.325806	98.5285	155.8018
1555.516602	97.7306	157.0343
1566.788574	96.9426	159.4148
1578.14209	96.2166	163.4002
1589.578003	95.6585	168.7029
1601.09668	95.3105	174.8673
1612.698975	95.2115	-178.0989
1624.385254	95.4114	-171.4567
1636.15625	95.8423	-166.421
1648.012451	96.3873	-163.2306
1659.95459	96.9141	-161.8824
1671.983398	97.3199	-161.7169
1684.099243	97.5816	-162.0712
1696.302856	97.6796	-162.5041
1708.594971	97.6193	-162.3773
1720.976196	97.484	-160.8792
1733.447144	97.411	-157.6357
1746.008423	97.5807	-152.7078
1758.660645	98.1062	-147.8314
1771.404663	98.8212	-145.4036
1784.240967	99.4539	-145.5866
1797.170288	99.8674	-146.924
1810.193359	100.0764	-147.9748
1823.310791	100.2179	-148.0507
1836.523193	100.4064	-147.6552
1849.831421	100.6394	-147.3873
1863.236084	100.8738	-147.5872
1876.737793	101.0443	-148.1965
1890.337524	101.1293	-148.6419
1904.035645	101.1776	-148.7847
1917.833008	101.2111	-148.6772
1931.730469	101.2454	-148.3549
1945.728638	101.2824	-147.9014
1959.828125	101.3287	-147.382
1974.029907	101.387	-146.8537
1988.334473	101.44	-146.3743
2002.742798	101.4773	-145.9632
2017.255493	101.4924	-145.4801
2031.873291	101.5004	-144.7487
2046.597168	101.5207	-143.9422
2061.427734	101.5589	-143.0842
2076.365479	101.6149	-142.2459
2091.411865	101.675	-141.6128
2106.566895	101.7222	-141.0825
2121.832031	101.7522	-140.5859
2137.207764	101.7672	-140.0671
2152.694824	101.7823	-139.4429
2168.294189	101.8023	-138.7789
2184.006592	101.8245	-138.2331
2199.832764	101.8375	-137.7334
2215.773682	101.8454	-137.2078
2231.830078	101.8494	-136.6413
2248.002686	101.8515	-136.08
2264.292725	101.8515	-135.5429
2280.700684	101.8495	-134.9631
2297.227539	101.8505	-134.3926
2313.874268	101.8584	-133.8025
2330.641602	101.8734	-133.1883
2347.530273	101.8894	-132.6699
2364.541504	101.8982	-132.1529
2381.676025	101.9032	-131.5212
2398.93457	101.9121	-130.817
2416.318359	101.9389	-129.9744
2433.827881	101.9949	-129.0496
2451.464355	102.0829	-128.2238
2469.22876	102.1887	-127.5136
2487.121826	102.3017	-126.8203
2505.144531	102.4195	-126.1478
2523.297852	102.5573	-125.4247
2541.582764	102.721	-124.722
2560	102.917	-124.0629
2578.550781	103.1468	-123.5598
2597.236084	103.4076	-123.3073
2616.056641	103.6746	-123.4012
2635.013672	103.9103	-123.9189
2654.108154	104.086	-124.585
2673.34082	104.208	-125.0487
2692.713135	104.3137	-125.1856
2712.225586	104.4374	-125.041
2731.879395	104.5924	-124.7223
2751.675781	104.7801	-124.365
2771.615479	105.0038	-123.9861
2791.699707	105.2658	-123.6304
2811.929688	105.5674	-123.4555
2832.305908	105.898	-123.5365
2852.830078	106.241	-123.9007
2873.50293	106.5897	-124.568
2894.325439	106.9393	-125.5269
2915.298828	107.2799	-126.8504
2936.424316	107.5899	-128.5501
2957.702881	107.8464	-130.6059
2979.135742	108.038	-132.8284
3000.723633	108.163	-135.0168
3022.468262	108.2406	-137.0661
3044.370117	108.2942	-138.8825
3066.430908	108.3482	-140.5072
3088.651611	108.4107	-142.1056
3111.033203	108.4802	-143.7283
3133.577148	108.5512	-145.3702
3156.28418	108.6247	-147.078
3179.156006	108.7032	-148.8344
3202.193359	108.7902	-150.6333
3225.397949	108.8967	-152.5337
3248.770508	109.0381	-154.6095
3272.3125	109.2121	-157.045
3296.024902	109.3977	-160.0788
3319.90918	109.5562	-163.7771
3343.966797	109.6466	-168.0972
3368.198486	109.6336	-172.8323
3392.605713	109.5071	-177.8024
3417.189941	109.2635	177.2208
3441.952393	108.9115	172.427
3466.894287	108.4629	167.9143
3492.016846	107.9383	163.8138
3517.321289	107.3593	160.1699
3542.809326	106.7477	156.8573
3568.481934	106.0992	153.7662
3594.340576	105.3792	150.9957
3620.386719	104.5735	148.9105
3646.621582	103.725	147.8991
3673.046387	102.922	147.9144
3699.662842	102.2313	148.3897
3726.472168	101.6487	148.719
3753.475586	101.1087	148.6759
3780.675049	100.543	148.4383
3808.071289	99.9263	148.4862
3835.666016	99.2927	149.1826
3863.460938	98.7147	150.4631
3891.457275	98.2331	151.7652
3919.65625	97.8224	152.6594
3948.059814	97.4234	153.1041
3976.668945	96.9938	153.2522
4005.485596	96.513	153.3757
4034.510986	95.983	153.7085
4063.746582	95.4164	154.3922
4093.194336	94.8387	155.6155
4122.855469	94.2977	157.4283
4152.730957	93.8419	159.4921
4182.82373	93.4742	161.3463
4213.133789	93.1512	162.7379
4243.664062	92.8205	163.7063
4274.415527	92.4528	164.548
4305.389648	92.0528	165.4943
4336.588379	91.637	166.5347
4368.013184	91.2063	167.5652
4399.665527	90.7276	168.649
4431.547363	90.1926	170.2773
4463.660156	89.6559	172.6825
4496.005371	89.1752	175.662
4528.585449	88.7712	178.8788
4561.401367	88.4384	-177.9217
4594.455078	88.1606	-174.8395
4627.748535	87.9156	-171.8934
4661.283203	87.6909	-169.0466
4695.060547	87.4851	-166.1678
4729.083008	87.3101	-163.1906
4763.352051	87.1853	-160.1762
4797.869141	87.1305	-157.2378
4832.636719	87.1515	-154.6379
4867.655762	87.2317	-152.7072
4902.928711	87.33	-151.6518
4938.45752	87.377	-151.5867
4974.243652	87.2911	-152.2453
5010.289062	87.0324	-152.9562
5046.595703	86.6196	-153.0646
5083.165527	86.1086	-152.0071
5120	85.6058	-149.5043
5157.101562	85.234	-145.8747
5194.472168	85.057	-142.0329
5232.113281	85.0381	-138.8403
5270.027344	85.0914	-136.5358
5308.216309	85.1514	-134.8919
5346.681641	85.1975	-133.6904
5385.42627	85.2276	-132.8532
5424.451172	85.2306	-132.3567
5463.758789	85.1928	-132.2144
5503.351562	85.087	-132.2803
5543.230957	84.91	-132.2152
5583.399414	84.7022	-131.8178
5623.859375	84.5083	-131.1736
5664.611816	84.3423	-130.5158
5705.660156	84.1975	-130.051
5747.005859	84.0567	-129.8501
5788.650879	83.9038	-129.8796
5830.597656	83.7408	-130.0501
5872.848633	83.578	-130.3962
5915.405762	83.4231	-131.0328
5958.271484	83.2651	-132.1348
6001.447266	83.0723	-133.8332
6044.936523	82.8084	-136.0742
6088.740234	82.4484	-138.7034
6132.861816	81.9785	-141.5882
6177.303223	81.3807	-144.5356
6222.066406	80.6517	-147.1934
6267.154297	79.8288	-149.3536
6312.568359	78.956	-151.1089
6358.312012	78.037	-152.3814
6404.386719	77.099	-152.7063
6450.795898	76.2742	-151.8885
6497.541016	75.7282	-151.0278
6544.625	75.4413	-151.927
6592.049805	75.2285	-155.15
6639.818359	74.9526	-160.1228
6687.933594	74.6106	-166.3058
6736.396973	74.2407	-173.6945
6785.211426	73.8647	177.7341
6834.379883	73.5357	168.1669
6883.904785	73.3679	157.8839
6933.788574	73.465	147.1415
6984.033691	73.805	136.257
7034.642578	74.2711	125.9778
7085.618652	74.8132	117.3145
7136.963867	75.4572	110.7159
7188.681152	76.2143	105.9675
7240.773438	77.0644	102.6451
7293.243164	77.9904	100.3509
7346.092773	79.0035	98.7475
7399.325684	80.1336	97.3676
7452.944336	81.3856	95.5362
7506.951172	82.7307	92.5538
7561.350098	84.1118	87.8404
7616.142578	85.4319	80.9439
7671.332031	86.5669	71.6763
7726.921875	87.372	60.1487
7782.914551	87.687	47.0316
7839.3125	87.377	33.6111
7896.119629	86.4221	21.7178
7953.337891	84.9522	12.8944
8010.971191	83.1712	7.9547
8069.021973	81.2972	7.0578
8127.493164	79.5283	9.8983
8186.388672	78.0263	15.8348
8245.710938	76.8924	23.6399
8305.461914	76.1195	32.2699
8365.647461	75.6875	41.6572
8426.267578	75.6386	51.3534
8487.328125	75.9917	60.0226
8548.831055	76.6317	66.0228
8610.779297	77.3427	68.7571
8673.176758	77.9238	68.7275
8736.026367	78.2468	67.1139
8799.331055	78.3018	65.3901
8863.094727	78.2149	64.6997
8927.320312	78.1609	64.9708
8992.010742	78.1909	65.2883
9057.170898	78.24	65.207
9122.802734	78.2371	64.7957
9188.910156	78.1051	64.3688
9255.49707	77.8622	64.7359
9322.566406	77.6182	65.5777
9390.121094	77.3212	65.9518
9458.166016	76.8593	66.5904
9526.704102	76.2983	68.7356
9595.738281	75.8233	72.3465
9665.273438	75.5454	76.0824
9735.311523	75.3814	78.614
9805.857422	75.1394	79.9291
9876.915039	74.7145	81.2042
9948.487305	74.1425	83.49
10020.578125	73.5026	87.1997
10093.191406	72.8856	93.0168
10166.331055	72.4947	101.349
10240	72.5327	110.1891
10314.203125	72.9117	116.6075
10388.944336	73.3698	120.0349
10464.226562	73.7218	121.4063
10540.054688	73.8728	121.7493
10616.432617	73.7899	122.1959
10693.363281	73.5579	123.9491
10770.852539	73.3209	126.9236
10848.902344	73.1189	130.4769
10927.517578	72.9359	134.692
11006.703125	72.8371	140.4268
11086.461914	73.0651	149.0592
11166.798828	73.9071	159.0391
11247.71875	75.1501	164.5785
11329.223633	76.2271	163.7144
11411.320312	76.8511	159.555
11494.011719	77.0611	154.9017
11577.301758	76.9851	151.0594
11661.195312	76.7482	148.4466
11745.697266	76.4632	146.9726
11830.811523	76.2042	145.989
11916.542969	75.9733	144.6763
12002.894531	75.7163	142.4183
12089.873047	75.3273	138.8915
12177.480469	74.6853	134.4316
12265.723633	73.7024	130.0403
12354.606445	72.3754	127.1188
12444.132812	70.7915	127.3561
12534.308594	69.2035	132.2509
12625.136719	68.0245	140.7815
12716.624023	67.5025	148.5791
12808.773438	67.3865	151.8921
12901.591797	67.2566	150.4798
12995.082031	66.8896	144.8049
13089.25	66.2496	134.2146
13184.099609	65.6286	115.1941
13279.636719	65.5426	75.8115
13375.867188	66.1776	17.0146
13472.793945	67.2286	-19.7028
13570.422852	68.3786	-40.3996
13668.759766	69.4436	-55.1449
13767.80957	70.2356	-67.5592
13867.577148	70.6386	-78.705
13968.067383	70.6196	-88.7073
14069.285156	70.1646	-97.2217
14171.237305	69.3046	-103.45
14273.927734	68.1666	-106.6987
14377.362305	66.9386	-106.8174
14481.546875	65.8136	-104.4064
14586.486328	64.9076	-100.7109
14692.185547	64.2106	-96.9966
14798.651367	63.6206	-94.0961
14905.888672	63.0096	-91.9768
15013.902344	62.3066	-90.2449
15122.700195	61.4766	-88.6816
15232.285156	60.5086	-87.1845
15342.664062	59.3446	-85.7901
15453.84375	57.8296	-82.2242
15565.829102	56.0336	-70.1991
15678.625	54.5156	-46.9043
15792.239258	53.7596	-25.2972
15906.675781	53.4726	-11.1951
16021.942383	53.3636	3.04
16138.043945	53.6396	20.1388
16254.986328	54.4186	35.9766
16372.777344	55.4876	47.5325
16491.421875	56.5306	55.0593
16610.923828	57.4046	61.2071
16731.294922	58.2336	68.0257
16852.535156	59.1376	74.7184
16974.65625	60.0436	79.6865
17097.662109	60.8176	82.8521
17221.558594	61.3936	84.9705
17346.353516	61.7796	87.1804
17472.052734	62.0916	90.4762
17598.662109	62.4696	94.9597
17726.189453	62.9856	99.6701
17854.640625	63.5646	103.3786
17984.021484	64.0996	106.1439
18114.341797	64.5786	108.3641
18245.605469	64.9836	109.794
18377.820312	65.2236	110.424
18510.994141	65.2256	111.1929
18645.132812	65.0366	113.6328
18780.242188	64.8836	118.8826
18916.332031	65.0376	125.5395
19053.408203	65.4826	130.8122
19191.476562	66.0126	133.8865
19330.546875	66.4856	135.2222
19470.623047	66.8156	135.22
19611.714844	66.9336	134.4089
19753.830078	66.8276	133.5611
19896.974609	66.5916	133.3942

