* Measurement data measured by REW V5.20.13
* Source: /projects/speakers/epique and morel/port and woofer nearfield diffraction.txt
* Format: Comma/Tab/Space delimited data
* Dated: Feb 21, 2023 8:24:58 PM
* REW Settings:
*  C-weighting compensation: Off
*  Target level: 75.0 dB
* Note: Measurement imported from /projects/speakers/epique and morel/port and woofer nearfield diffraction.txt Format: Comma/Tab/Space delimited data 957 values loaded, 20 Hz to 19,896 Hz log spaced
* Measurement: port and woofer nearfield
* Smoothing: 1/24 octave
* Frequency Step: 1/96 octave
* Start Frequency: 20.000 Hz
*
* Freq(Hz)	SPL(dB)	Phase(degrees)
20.000000	79.930	124.0154
20.144928	80.051	123.3856
20.290907	80.222	122.4660
20.437943	80.409	121.4157
20.586044	80.599	120.3252
20.735220	80.786	119.2265
20.885475	80.970	118.1325
21.036821	81.152	117.0523
21.189262	81.333	116.0051
21.342808	81.515	114.9931
21.497467	81.701	114.0128
21.653246	81.892	113.0715
21.810154	82.091	112.1587
21.968201	82.298	111.2582
22.127390	82.516	110.3676
22.287735	82.743	109.4683
22.449242	82.980	108.5406
22.611917	83.226	107.5841
22.775772	83.478	106.5841
22.940815	83.736	105.5303
23.107054	83.999	104.4314
23.274498	84.264	103.2830
23.443153	84.531	102.0833
23.613033	84.800	100.8470
23.784142	85.072	99.5718
23.956491	85.345	98.2501
24.130091	85.619	96.8748
24.304947	85.895	95.4527
24.481071	86.171	93.9728
24.658470	86.445	92.4229
24.837156	86.717	90.8100
25.017136	86.984	89.1278
25.198421	87.243	87.3744
25.381020	87.493	85.5705
25.564941	87.733	83.7233
25.750195	87.963	81.8445
25.936790	88.183	79.9609
26.124741	88.395	78.0816
26.314051	88.602	76.2081
26.504732	88.808	74.3520
26.696796	89.013	72.4981
26.890253	89.220	70.6223
27.085112	89.429	68.7136
27.281382	89.639	66.7399
27.479073	89.845	64.6682
27.678198	90.043	62.4768
27.878765	90.227	60.1750
28.080786	90.392	57.7669
28.284271	90.532	55.2746
28.489231	90.644	52.7496
28.695675	90.727	50.2396
28.903616	90.781	47.7925
29.113064	90.811	45.4754
29.324028	90.823	43.3233
29.536524	90.826	41.3550
29.750557	90.830	39.5843
29.966141	90.843	37.9841
30.183289	90.873	36.5037
30.402010	90.925	35.1014
30.622314	90.998	33.7107
30.844217	91.087	32.2732
31.067726	91.189	30.7676
31.292856	91.294	29.1728
31.519617	91.396	27.4842
31.748020	91.489	25.7179
31.978081	91.572	23.9199
32.209808	91.643	22.1137
32.443211	91.704	20.3180
32.678310	91.757	18.5591
32.915108	91.805	16.8329
33.153625	91.846	15.1257
33.393871	91.884	13.4423
33.635857	91.914	11.7698
33.879597	91.935	10.1027
34.125103	91.945	8.4667
34.372387	91.942	6.8751
34.621464	91.925	5.3470
34.872345	91.899	3.9207
35.125042	91.865	2.6061
35.379574	91.828	1.4021
35.635948	91.795	0.3156
35.894180	91.767	-0.6792
36.154285	91.748	-1.6223
36.416275	91.737	-2.5502
36.680161	91.733	-3.4730
36.945961	91.733	-4.4157
37.213688	91.735	-5.3938
37.483353	91.735	-6.3906
37.754974	91.732	-7.4050
38.028561	91.724	-8.4325
38.304131	91.713	-9.4460
38.581699	91.699	-10.4446
38.861279	91.683	-11.4316
39.142883	91.668	-12.3924
39.426529	91.654	-13.3394
39.712231	91.643	-14.2868
40.000000	91.636	-15.2249
40.289856	91.632	-16.1658
40.581814	91.629	-17.1248
40.875885	91.627	-18.1078
41.172089	91.625	-19.0947
41.470440	91.623	-20.0876
41.770950	91.619	-21.0883
42.073643	91.616	-22.0757
42.378525	91.614	-23.0540
42.685616	91.611	-24.0300
42.994934	91.611	-24.9887
43.306492	91.612	-25.9402
43.620308	91.613	-26.8955
43.936401	91.616	-27.8406
44.254780	91.619	-28.7850
44.575470	91.622	-29.7366
44.898483	91.625	-30.6781
45.223835	91.628	-31.6162
45.551544	91.630	-32.5573
45.881630	91.633	-33.4834
46.214108	91.636	-34.4016
46.548996	91.638	-35.3261
46.886307	91.638	-36.2641
47.226067	91.639	-37.1975
47.568283	91.639	-38.1316
47.912983	91.636	-39.0709
48.260181	91.634	-39.9937
48.609894	91.632	-40.9046
48.962143	91.630	-41.8106
49.316940	91.631	-42.6963
49.674313	91.636	-43.5745
50.034271	91.642	-44.4595
50.396843	91.653	-45.3394
50.762039	91.667	-46.2259
51.129883	91.681	-47.1275
51.500389	91.697	-48.0248
51.873581	91.714	-48.9224
52.249481	91.731	-49.8239
52.628101	91.749	-50.7072
53.009464	91.769	-51.5769
53.393593	91.789	-52.4451
53.780506	91.808	-53.3187
54.170223	91.828	-54.1797
54.562763	91.848	-55.0375
54.958145	91.868	-55.9024
55.356396	91.888	-56.7589
55.757530	91.909	-57.6175
56.161572	91.928	-58.4883
56.568542	91.947	-59.3546
56.978462	91.965	-60.2238
57.391350	91.980	-61.1021
57.807232	91.994	-61.9679
58.226128	92.008	-62.8259
58.648056	92.020	-63.6823
59.073048	92.034	-64.5204
59.501114	92.050	-65.3517
59.932281	92.066	-66.1879
60.366577	92.084	-67.0119
60.804020	92.103	-67.8295
61.244629	92.122	-68.6509
61.688435	92.139	-69.4801
62.135452	92.157	-70.2970
62.585712	92.176	-71.1115
63.039234	92.194	-71.9367
63.496040	92.214	-72.7604
63.956161	92.233	-73.5962
64.419617	92.249	-74.4544
64.886421	92.263	-75.3139
65.356621	92.272	-76.1739
65.830215	92.275	-77.0294
66.307251	92.277	-77.8510
66.787743	92.279	-78.6415
67.271713	92.281	-79.4141
67.759193	92.288	-80.1639
68.250206	92.300	-80.9153
68.744774	92.315	-81.6897
69.242928	92.334	-82.4776
69.744690	92.357	-83.2921
70.250084	92.378	-84.1525
70.759148	92.394	-85.0711
71.271896	92.404	-86.0288
71.788361	92.404	-87.0190
72.308571	92.389	-88.0188
72.832550	92.361	-88.9698
73.360321	92.321	-89.8422
73.891922	92.274	-90.6217
74.427376	92.228	-91.2876
74.966705	92.187	-91.8591
75.509949	92.155	-92.3659
76.057121	92.136	-92.8216
76.608261	92.132	-93.2714
77.163399	92.138	-93.7592
77.722557	92.153	-94.2934
78.285767	92.170	-94.8876
78.853058	92.184	-95.5374
79.424461	92.195	-96.2024
80.000000	92.202	-96.8629
80.579712	92.203	-97.5091
81.163628	92.199	-98.1330
81.751770	92.198	-98.7143
82.344177	92.199	-99.2680
82.940880	92.204	-99.8172
83.541901	92.217	-100.3643
84.147285	92.233	-100.9322
84.757050	92.251	-101.5390
85.371231	92.271	-102.1751
85.989868	92.289	-102.8491
86.612984	92.301	-103.5631
87.240616	92.309	-104.2876
87.872803	92.310	-105.0067
88.509560	92.303	-105.7029
89.150940	92.295	-106.3479
89.796967	92.289	-106.9526
90.447670	92.284	-107.5412
91.103088	92.286	-108.1166
91.763260	92.292	-108.6949
92.428215	92.298	-109.2899
93.097992	92.301	-109.9095
93.772614	92.306	-110.5464
94.452133	92.310	-111.2183
95.136566	92.307	-111.9370
95.825966	92.295	-112.6745
96.520363	92.270	-113.3948
97.219788	92.230	-114.0450
97.924286	92.188	-114.5659
98.633881	92.152	-114.9599
99.348625	92.132	-115.2797
100.068542	92.135	-115.5915
100.793686	92.155	-115.9789
101.524078	92.182	-116.4984
102.259766	92.206	-117.1452
103.000778	92.215	-117.8869
103.747162	92.201	-118.6590
104.498962	92.171	-119.3727
105.256203	92.130	-119.9793
106.018929	92.085	-120.4734
106.787186	92.041	-120.8810
107.561012	92.009	-121.2299
108.340446	91.985	-121.5615
109.125526	91.965	-121.9019
109.916290	91.950	-122.2428
110.712791	91.937	-122.5776
111.515060	91.923	-122.8982
112.323143	91.915	-123.1920
113.137085	91.914	-123.4746
113.956924	91.917	-123.7698
114.782700	91.929	-124.0860
115.614464	91.943	-124.4373
116.452255	91.957	-124.8294
117.296112	91.973	-125.2514
118.146095	91.987	-125.7029
119.002228	91.996	-126.1789
119.864563	92.004	-126.6613
120.733154	92.011	-127.1381
121.608040	92.012	-127.6018
122.489258	92.008	-128.0500
123.376869	92.007	-128.4797
124.270905	92.008	-128.9051
125.171425	92.008	-129.3372
126.078468	92.011	-129.7703
126.992081	92.014	-130.2054
127.912323	92.016	-130.6472
128.839233	92.021	-131.0946
129.772842	92.027	-131.5525
130.713242	92.031	-132.0224
131.660431	92.037	-132.4989
132.614502	92.044	-132.9897
133.575485	92.049	-133.5078
134.543427	92.057	-134.0606
135.518387	92.061	-134.6572
136.500412	92.056	-135.2984
137.489548	92.046	-135.9678
138.485855	92.024	-136.6402
139.489380	91.987	-137.2763
140.500168	91.933	-137.8286
141.518295	91.876	-138.2579
142.543793	91.823	-138.5677
143.576721	91.780	-138.8061
144.617142	91.753	-139.0339
145.665100	91.732	-139.2858
146.720642	91.710	-139.5542
147.783844	91.693	-139.8155
148.854752	91.678	-140.0674
149.933411	91.665	-140.3263
151.019897	91.657	-140.5994
152.114243	91.649	-140.8728
153.216522	91.640	-141.1283
154.326797	91.641	-141.3709
155.445114	91.651	-141.6346
156.571533	91.667	-141.9644
157.706116	91.686	-142.3861
158.848923	91.699	-142.8824
160.000000	91.698	-143.4014
161.159424	91.683	-143.8900
162.327255	91.667	-144.3321
163.503540	91.655	-144.7537
164.688354	91.643	-145.2018
165.881760	91.631	-145.7071
167.083801	91.606	-146.2448
168.294571	91.559	-146.7407
169.514099	91.500	-147.1145
170.742462	91.437	-147.3218
171.979736	91.383	-147.3849
173.225967	91.349	-147.3742
174.481232	91.333	-147.3526
175.745605	91.332	-147.3581
177.019119	91.344	-147.4151
178.301880	91.366	-147.5311
179.593933	91.391	-147.7079
180.895340	91.421	-147.9495
182.206177	91.452	-148.2460
183.526520	91.479	-148.5834
184.856430	91.497	-148.9508
186.195984	91.513	-149.3479
187.545227	91.524	-149.7580
188.904266	91.527	-150.1542
190.273132	91.530	-150.5249
191.651932	91.535	-150.8702
193.040726	91.542	-151.2151
194.439575	91.555	-151.6019
195.848572	91.565	-152.0449
197.267761	91.564	-152.5249
198.697250	91.553	-153.0021
200.137085	91.532	-153.4157
201.587372	91.507	-153.7338
203.048157	91.491	-153.9833
204.519531	91.485	-154.2043
206.001556	91.484	-154.4299
207.494324	91.491	-154.6880
208.997925	91.502	-154.9805
210.512405	91.511	-155.2997
212.037857	91.513	-155.6321
213.574371	91.512	-155.9680
215.122025	91.507	-156.2777
216.680893	91.501	-156.5421
218.251053	91.501	-156.7803
219.832581	91.507	-157.0131
221.425583	91.516	-157.2611
223.030121	91.530	-157.5466
224.646286	91.543	-157.8591
226.274170	91.550	-158.1791
227.913849	91.557	-158.5001
229.565399	91.564	-158.8026
231.228928	91.571	-159.0859
232.904510	91.586	-159.3901
234.592224	91.604	-159.7412
236.292191	91.616	-160.1418
238.004456	91.620	-160.5737
239.729126	91.614	-160.9696
241.466309	91.603	-161.2629
243.216080	91.597	-161.4380
244.978516	91.614	-161.5647
246.753738	91.657	-161.7432
248.541809	91.718	-162.0805
250.342850	91.783	-162.6619
252.156937	91.831	-163.4820
253.984161	91.844	-164.4664
255.824646	91.816	-165.5163
257.678467	91.746	-166.5038
259.545685	91.639	-167.3337
261.426483	91.510	-167.9830
263.320862	91.362	-168.4314
265.229004	91.190	-168.6587
267.150970	90.995	-168.5786
269.086853	90.784	-168.0170
271.036774	90.586	-166.8401
273.000824	90.459	-165.0912
274.979095	90.453	-162.9842
276.971710	90.591	-160.8779
278.978760	90.848	-159.1840
281.000336	91.169	-158.2323
283.036591	91.486	-158.0957
285.087585	91.752	-158.6125
287.153442	91.956	-159.5340
289.234283	92.098	-160.6121
291.330200	92.188	-161.6730
293.441284	92.242	-162.6236
295.567688	92.275	-163.3963
297.709503	92.304	-163.9973
299.866821	92.347	-164.5390
302.039795	92.401	-165.1406
304.228485	92.447	-165.8736
306.433044	92.468	-166.7331
308.653595	92.451	-167.5957
310.890228	92.396	-168.3082
313.143066	92.320	-168.7883
315.412231	92.241	-169.0037
317.697845	92.173	-168.9756
320.000000	92.128	-168.7700
322.318848	92.113	-168.5020
324.654510	92.124	-168.2605
327.007080	92.147	-168.0893
329.376709	92.173	-167.9809
331.763519	92.197	-167.8573
334.167603	92.228	-167.6770
336.589142	92.278	-167.5066
339.028198	92.343	-167.4270
341.484924	92.407	-167.4756
343.959473	92.459	-167.6224
346.451935	92.496	-167.7531
348.962463	92.530	-167.7867
351.491211	92.577	-167.7715
354.038239	92.641	-167.8085
356.603760	92.707	-167.9765
359.187866	92.762	-168.2847
361.790680	92.796	-168.6431
364.412354	92.812	-168.9580
367.053040	92.815	-169.1910
369.712860	92.814	-169.3630
372.391968	92.809	-169.4660
375.090454	92.803	-169.4794
377.808533	92.805	-169.4245
380.546265	92.820	-169.3408
383.303864	92.843	-169.2909
386.081451	92.867	-169.3306
388.879150	92.879	-169.4241
391.697144	92.874	-169.4862
394.535522	92.858	-169.4528
397.394501	92.843	-169.2730
400.274170	92.844	-168.9653
403.174744	92.872	-168.6488
406.096313	92.922	-168.4461
409.039062	92.974	-168.4234
412.003113	93.009	-168.5637
414.988647	93.017	-168.7479
417.995850	93.002	-168.8505
421.024811	92.974	-168.8066
424.075714	92.950	-168.6406
427.148743	92.935	-168.3900
430.244049	92.932	-168.0982
433.361786	92.940	-167.8230
436.502106	92.957	-167.5847
439.665161	92.977	-167.4018
442.851166	92.996	-167.3204
446.060242	93.000	-167.3240
449.292572	92.973	-167.2970
452.548340	92.921	-167.0685
455.827698	92.872	-166.5099
459.130798	92.865	-165.7128
462.457855	92.915	-164.9823
465.809021	92.995	-164.5675
469.184448	93.060	-164.4888
472.584381	93.085	-164.5678
476.008911	93.074	-164.5537
479.458252	93.054	-164.3230
482.932617	93.051	-163.9421
486.432159	93.074	-163.5930
489.957031	93.111	-163.3911
493.507477	93.141	-163.3557
497.083618	93.153	-163.4559
500.685699	93.137	-163.5891
504.313873	93.091	-163.6265
507.968323	93.032	-163.4823
511.649292	92.978	-163.1298
515.356934	92.948	-162.6518
519.091370	92.948	-162.2013
522.852966	92.969	-161.8646
526.641724	93.000	-161.6782
530.458008	93.031	-161.6847
534.301941	93.048	-161.8654
538.173706	93.038	-162.1285
542.073547	93.004	-162.3753
546.001648	92.961	-162.5523
549.958191	92.920	-162.7076
553.943420	92.876	-162.9233
557.957520	92.818	-163.2268
562.000671	92.735	-163.5274
566.073181	92.631	-163.7094
570.175171	92.524	-163.7440
574.306885	92.434	-163.6944
578.468567	92.363	-163.7216
582.660400	92.292	-163.9652
586.882568	92.189	-164.3698
591.135376	92.032	-164.7086
595.419006	91.832	-164.7517
599.733643	91.620	-164.3838
604.079590	91.434	-163.6779
608.456970	91.293	-162.8331
612.866089	91.193	-161.9932
617.307190	91.119	-161.1920
621.780457	91.063	-160.3986
626.286133	91.031	-159.5414
630.824463	91.039	-158.5812
635.395691	91.110	-157.5682
640.000000	91.263	-156.7028
644.637695	91.487	-156.2743
649.309021	91.737	-156.5451
654.014160	91.950	-157.5779
658.753418	92.086	-159.1301
663.527039	92.140	-160.8333
668.335205	92.139	-162.4324
673.178284	92.117	-163.8319
678.056396	92.099	-165.0825
682.969849	92.099	-166.3434
687.918945	92.108	-167.7677
692.903870	92.094	-169.3957
697.924927	92.028	-171.0725
702.982422	91.910	-172.4759
708.076477	91.777	-173.3889
713.207520	91.691	-173.9289
718.375732	91.676	-174.4411
723.581360	91.709	-175.2183
728.824707	91.741	-176.2777
734.106079	91.754	-177.4272
739.425720	91.760	-178.4847
744.783936	91.783	-179.4715
750.180908	91.821	179.4644
755.617065	91.848	178.3198
761.092529	91.851	177.2897
766.607727	91.855	176.5549
772.162903	91.904	176.0760
777.758301	92.016	175.5783
783.394287	92.171	174.7719
789.071045	92.326	173.5849
794.789001	92.450	172.1432
800.548340	92.537	170.6325
806.349487	92.599	169.2026
812.192627	92.652	167.8817
818.078125	92.702	166.6110
824.006226	92.744	165.3253
829.977295	92.768	164.0325
835.991699	92.768	162.7918
842.049622	92.747	161.6651
848.151428	92.713	160.6981
854.297485	92.674	159.8781
860.488098	92.634	159.1546
866.723572	92.591	158.5153
873.004211	92.545	157.9544
879.330322	92.497	157.4419
885.702332	92.442	156.9933
892.120483	92.381	156.6649
898.585144	92.334	156.4368
905.096680	92.317	156.1260
911.655396	92.311	155.4529
918.261597	92.256	154.3232
924.915710	92.089	153.0710
931.618042	91.795	152.2733
938.368896	91.418	152.2981
945.168762	91.036	153.0424
952.017822	90.684	154.2083
958.916504	90.353	155.7043
965.865234	90.037	157.6430
972.864319	89.766	159.9865
979.914062	89.566	162.3903
987.014954	89.410	164.5560
994.167236	89.251	166.5642
1001.371399	89.075	168.6735
1008.627747	88.904	171.0079
1015.936646	88.759	173.5922
1023.298584	88.661	176.4376
1030.713867	88.636	179.4584
1038.182739	88.698	-177.5687
1045.705933	88.829	-174.8782
1053.283447	89.001	-172.5526
1060.916016	89.203	-170.5697
1068.603882	89.430	-169.0108
1076.347412	89.657	-168.0166
1084.147095	89.847	-167.5918
1092.003296	89.978	-167.5481
1099.916382	90.049	-167.6534
1107.886841	90.075	-167.7564
1115.915039	90.066	-167.7763
1124.001343	90.030	-167.6588
1132.146362	89.980	-167.3555
1140.350342	89.932	-166.8485
1148.613770	89.904	-166.2075
1156.937134	89.904	-165.5560
1165.320801	89.927	-164.9668
1173.765137	89.967	-164.4618
1182.270752	90.018	-164.0403
1190.838013	90.078	-163.6726
1199.467285	90.151	-163.3681
1208.159180	90.236	-163.1905
1216.913940	90.324	-163.1593
1225.732178	90.406	-163.2235
1234.614380	90.479	-163.2887
1243.560913	90.549	-163.2640
1252.572266	90.632	-163.1019
1261.648926	90.739	-162.8547
1270.791382	90.869	-162.6225
1280.000000	91.017	-162.4390
1289.275391	91.181	-162.3203
1298.618042	91.357	-162.3409
1308.028320	91.527	-162.5435
1317.506836	91.673	-162.8690
1327.054077	91.790	-163.2120
1336.670410	91.881	-163.4856
1346.356567	91.953	-163.6309
1356.112793	92.013	-163.5928
1365.939697	92.081	-163.3576
1375.837891	92.171	-163.0290
1385.807739	92.277	-162.7682
1395.849854	92.382	-162.6530
1405.964844	92.469	-162.6590
1416.152954	92.528	-162.7276
1426.415039	92.554	-162.8107
1436.751465	92.541	-162.8144
1447.162720	92.493	-162.6142
1457.649414	92.428	-162.1411
1468.212158	92.371	-161.4052
1478.851440	92.342	-160.5050
1489.567871	92.351	-159.6028
1500.361816	92.389	-158.8333
1511.234131	92.443	-158.2735
1522.185059	92.497	-157.9554
1533.215454	92.542	-157.8507
1544.325806	92.574	-157.9200
1555.516602	92.598	-158.1689
1566.788574	92.615	-158.6209
1578.142090	92.620	-159.3032
1589.578003	92.608	-160.2356
1601.096680	92.566	-161.3744
1612.698975	92.488	-162.5968
1624.385254	92.385	-163.7691
1636.156250	92.281	-164.8559
1648.012451	92.198	-165.9238
1659.954590	92.142	-167.0892
1671.983398	92.106	-168.4497
1684.099243	92.073	-170.0206
1696.302856	92.023	-171.7299
1708.594971	91.947	-173.4440
1720.976196	91.846	-175.0010
1733.447144	91.733	-176.2649
1746.008423	91.629	-177.1644
1758.660645	91.558	-177.7118
1771.404663	91.539	-178.0108
1784.240967	91.572	-178.2046
1797.170288	91.648	-178.3925
1810.193359	91.748	-178.6166
1823.310791	91.860	-178.8889
1836.523193	91.972	-179.1879
1849.831421	92.079	-179.4754
1863.236084	92.180	-179.7284
1876.737793	92.275	-179.9617
1890.337524	92.358	179.8092
1904.035645	92.424	179.5859
1917.833008	92.469	179.3766
1931.730469	92.493	179.1930
1945.728638	92.498	179.0255
1959.828125	92.485	178.8425
1974.029907	92.449	178.6489
1988.334473	92.390	178.4907
2002.742798	92.314	178.4115
2017.255493	92.234	178.4093
2031.873291	92.163	178.4044
2046.597168	92.102	178.2857
2061.427734	92.043	177.9912
2076.365479	91.977	177.5138
2091.411865	91.894	176.8865
2106.566895	91.795	176.1671
2121.832031	91.681	175.3991
2137.207764	91.553	174.6158
2152.694824	91.414	173.8513
2168.294189	91.270	173.1432
2184.006592	91.125	172.5084
2199.832764	90.985	171.9401
2215.773682	90.846	171.4470
2231.830078	90.708	171.0622
2248.002686	90.569	170.8200
2264.292725	90.433	170.7442
2280.700684	90.306	170.8181
2297.227539	90.188	170.9879
2313.874268	90.076	171.2188
2330.641602	89.962	171.4987
2347.530273	89.844	171.8019
2364.541504	89.717	172.1013
2381.676025	89.571	172.3971
2398.934570	89.403	172.7127
2416.318359	89.215	173.0642
2433.827881	89.013	173.4253
2451.464355	88.799	173.7448
2469.228760	88.572	173.9789
2487.121826	88.327	174.1195
2505.144531	88.063	174.1818
2523.297852	87.781	174.1908
2541.582764	87.487	174.1858
2560.000000	87.189	174.1959
2578.550781	86.900	174.2242
2597.236084	86.627	174.2695
2616.056641	86.381	174.3260
2635.013672	86.163	174.3816
2654.108154	85.975	174.4459
2673.340820	85.814	174.5486
2692.713135	85.678	174.7104
2712.225586	85.564	174.9494
2731.879395	85.464	175.2961
2751.675781	85.372	175.7945
2771.615479	85.281	176.5014
2791.699707	85.193	177.4645
2811.929688	85.110	178.6978
2832.305908	85.038	-179.8350
2852.830078	84.983	-178.2009
2873.502930	84.946	-176.4882
2894.325439	84.922	-174.7975
2915.298828	84.904	-173.2091
2936.424316	84.881	-171.7671
2957.702881	84.847	-170.4875
2979.135742	84.798	-169.3665
3000.723633	84.731	-168.3920
3022.468262	84.644	-167.5365
3044.370117	84.537	-166.7406
3066.430908	84.415	-165.9342
3088.651611	84.288	-165.0643
3111.033203	84.166	-164.0979
3133.577148	84.060	-163.0310
3156.284180	83.977	-161.8880
3179.156006	83.916	-160.6992
3202.193359	83.873	-159.4886
3225.397949	83.841	-158.2627
3248.770508	83.813	-157.0104
3272.312500	83.784	-155.7082
3296.024902	83.758	-154.3495
3319.909180	83.735	-152.9631
3343.966797	83.716	-151.5972
3368.198486	83.698	-150.2953
3392.605713	83.679	-149.0719
3417.189941	83.663	-147.9074
3441.952393	83.660	-146.7952
3466.894287	83.682	-145.7681
3492.016846	83.737	-144.8668
3517.321289	83.825	-144.1172
3542.809326	83.943	-143.5207
3568.481934	84.083	-143.0385
3594.340576	84.241	-142.6037
3620.386719	84.413	-142.1448
3646.621582	84.600	-141.6036
3673.046387	84.801	-140.9567
3699.662842	85.015	-140.2140
3726.472168	85.236	-139.4054
3753.475586	85.460	-138.5637
3780.675049	85.684	-137.7324
3808.071289	85.908	-136.9704
3835.666016	86.128	-136.3339
3863.460938	86.345	-135.8689
3891.457275	86.558	-135.6137
3919.656250	86.769	-135.5888
3948.059814	86.980	-135.7964
3976.668945	87.192	-136.2189
4005.485596	87.408	-136.8119
4034.510986	87.632	-137.5225
4063.746582	87.869	-138.3102
4093.194336	88.120	-139.1459
4122.855469	88.385	-140.0112
4152.730957	88.661	-140.8979
4182.823730	88.946	-141.8060
4213.133789	89.240	-142.7584
4243.664062	89.538	-143.8019
4274.415527	89.837	-144.9966
4305.389648	90.128	-146.3917
4336.588379	90.405	-148.0162
4368.013184	90.660	-149.8764
4399.665527	90.890	-151.9481
4431.547363	91.089	-154.1860
4463.660156	91.259	-156.5379
4496.005371	91.399	-158.9474
4528.585449	91.515	-161.3701
4561.401367	91.611	-163.7900
4594.455078	91.694	-166.2143
4627.748535	91.765	-168.6628
4661.283203	91.831	-171.1534
4695.060547	91.896	-173.6905
4729.083008	91.973	-176.2770
4763.352051	92.073	-178.9347
4797.869141	92.210	178.2897
4832.636719	92.384	175.3235
4867.655762	92.587	172.0883
4902.928711	92.795	168.5353
4938.457520	92.980	164.6935
4974.243652	93.122	160.6814
5010.289062	93.210	156.6567
5046.595703	93.256	152.7421
5083.165527	93.278	148.9669
5120.000000	93.294	145.2631
5157.101562	93.319	141.5193
5194.472168	93.357	137.6255
5232.113281	93.406	133.5002
5270.027344	93.454	129.1160
5308.216309	93.484	124.5055
5346.681641	93.479	119.7385
5385.426270	93.423	114.8943
5424.451172	93.304	110.0367
5463.758789	93.112	105.2050
5503.351562	92.838	100.4357
5543.230957	92.476	95.7935
5583.399414	92.027	91.3722
5623.859375	91.498	87.2828
5664.611816	90.904	83.6458
5705.660156	90.265	80.5904
5747.005859	89.595	78.3012
5788.650879	88.897	77.1319
5830.597656	88.164	77.6927
5872.848633	87.395	80.7315
5915.405762	86.630	86.6727
5958.271484	85.940	95.0534
6001.447266	85.378	104.4081
6044.936523	84.947	112.8322
6088.740234	84.614	118.9042
6132.861816	84.348	122.2822
6177.303223	84.125	123.5260
6222.066406	83.930	123.4767
6267.154297	83.752	122.7982
6312.568359	83.574	121.8491
6358.312012	83.368	120.7654
6404.386719	83.103	119.5759
6450.795898	82.745	118.2803
6497.541016	82.272	116.9165
6544.625000	81.667	115.6280
6592.049805	80.921	114.7535
6639.818359	80.035	114.9092
6687.933594	79.028	116.9769
6736.396973	77.963	121.9283
6785.211426	77.001	130.4501
6834.379883	76.455	142.4276
6883.904785	76.662	156.5984
6933.788574	77.635	170.7997
6984.033691	79.037	-177.2194
7034.642578	80.521	-168.9877
7085.618652	81.888	-165.0004
7136.963867	83.050	-164.8859
7188.681152	83.975	-167.7556
7240.773438	84.655	-172.4977
7293.243164	85.103	-178.0216
7346.092773	85.344	176.5383
7399.325684	85.413	171.7137
7452.944336	85.355	167.7068
7506.951172	85.212	164.4775
7561.350098	85.025	161.8928
7616.142578	84.828	159.8513
7671.332031	84.642	158.3159
7726.921875	84.478	157.2823
7782.914551	84.335	156.7175
7839.312500	84.204	156.5067
7896.119629	84.075	156.4583
7953.337891	83.943	156.3503
8010.971191	83.808	156.0015
8069.021973	83.668	155.3369
8127.493164	83.519	154.4235
8186.388672	83.353	153.4114
8245.710938	83.158	152.4088
8305.461914	82.916	151.4071
8365.647461	82.595	150.3535
8426.267578	82.156	149.3210
8487.328125	81.574	148.6392
8548.831055	80.859	148.7905
8610.779297	80.062	150.2244
8673.176758	79.247	153.3261
8736.026367	78.474	158.4338
8799.331055	77.818	165.6576
8863.094727	77.409	174.5949
8927.320312	77.388	-175.8281
8992.010742	77.782	-167.1212
9057.170898	78.447	-160.6021
9122.802734	79.179	-156.7818
9188.910156	79.835	-155.2427
9255.497070	80.359	-155.0535
9322.566406	80.757	-155.3204
9390.121094	81.067	-155.5467
9458.166016	81.326	-155.6916
9526.704102	81.555	-155.9560
9595.738281	81.748	-156.5270
9665.273438	81.890	-157.4699
9735.311523	81.957	-158.7810
9805.857422	81.929	-160.4602
9876.915039	81.782	-162.5131
9948.487305	81.491	-164.8308
10020.578125	81.027	-167.0480
10093.191406	80.361	-168.4791
10166.331055	79.474	-168.1872
10240.000000	78.363	-165.1604
10314.203125	77.076	-158.5668
10388.944336	75.774	-148.0225
10464.226562	74.849	-133.8702
10540.054688	74.858	-117.3658
10616.432617	75.961	-100.5535
10693.363281	77.687	-85.6896
10770.852539	79.536	-74.4673
10848.902344	81.273	-67.5328
10927.517578	82.829	-64.5442
11006.703125	84.207	-64.6081
11086.461914	85.421	-66.7579
11166.798828	86.480	-70.2544
11247.718750	87.375	-74.6534
11329.223633	88.097	-79.6811
11411.320312	88.647	-85.0344
11494.011719	89.057	-90.3111
11577.301758	89.395	-95.2141
11661.195312	89.726	-99.8621
11745.697266	90.063	-104.7971
11830.811523	90.351	-110.5761
11916.542969	90.520	-117.3712
12002.894531	90.528	-124.9813
12089.873047	90.362	-133.1204
12177.480469	90.014	-141.5738
12265.723633	89.478	-150.1325
12354.606445	88.758	-158.5399
12444.132812	87.882	-166.5942
12534.308594	86.883	-174.3137
12625.136719	85.790	177.9659
12716.624023	84.624	169.6319
12808.773438	83.407	159.9650
12901.591797	82.196	148.3371
12995.082031	81.097	134.3116
13089.250000	80.264	117.6431
13184.099609	79.830	98.3309
13279.636719	79.798	76.7912
13375.867188	80.011	53.9614
13472.793945	80.240	31.1651
13570.422852	80.299	9.8480
13668.759766	80.084	-8.6661
13767.809570	79.571	-23.4085
13867.577148	78.782	-33.9310
13968.067383	77.776	-40.3350
14069.285156	76.639	-43.2384
14171.237305	75.483	-43.7538
14273.927734	74.416	-43.3649
14377.362305	73.476	-43.6821
14481.546875	72.605	-46.3173
14586.486328	71.697	-53.1144
14692.185547	70.682	-66.5250
14798.651367	69.620	-89.3372
14905.888672	68.743	-122.9321
15013.902344	68.303	-164.6574
15122.700195	68.259	152.9628
15232.285156	68.380	119.0566
15342.664062	68.692	99.3422
15453.843750	69.519	93.4908
15565.829102	70.969	96.5936
15678.625000	72.715	102.6548
15792.239258	74.373	107.2196
15906.675781	75.722	108.2217
16021.942383	76.674	105.7250
16138.043945	77.214	101.2120
16254.986328	77.393	96.6761
16372.777344	77.325	93.7899
16491.421875	77.195	93.4058
16610.923828	77.239	95.3558
16731.294922	77.622	98.4310
16852.535156	78.280	100.7442
16974.656250	78.973	100.6614
17097.662109	79.485	97.6988
17221.558594	79.724	92.4870
17346.353516	79.668	86.0687
17472.052734	79.295	79.5716
17598.662109	78.574	74.2436
17726.189453	77.504	71.1303
17854.640625	76.147	70.5191
17984.021484	74.621	71.9390
18114.341797	73.038	74.9474
18245.605469	71.439	79.9235
18377.820312	69.788	87.9271
18510.994141	68.077	99.5801
18645.132812	66.444	114.0497
18780.242188	65.175	129.3240
18916.332031	64.488	143.5776
19053.408203	64.336	156.1896
19191.476562	64.573	167.4355
19330.546875	65.126	177.3221
19470.623047	65.887	-174.9755
19611.714844	66.661	-170.3218
19753.830078	67.263	-168.5263
