* Measurement data measured by REW V5.20.13
* Source: Trace Arithmetic result A + B
* Format: Trace Arithmetic result A + B
* Dated: Feb 21, 2023 4:29:18 PM
* REW Settings:
*  C-weighting compensation: Off
*  Target level: 75.0 dB
* Note: Trace Arithmetic A plus B A = Port Near Field B = Woofer Near Field
* Measurement: Port and Woofer Near Field
* Smoothing: 1/24 octave
* Frequency Step: 1/96 octave
* Start Frequency: 20.000 Hz
*
* Freq(Hz)	SPL(dB)	Phase(degrees)
20	93.7938	124.6981
20.144928	94.0011	123.6557
20.290907	94.2035	122.5812
20.437943	94.4005	121.4293
20.586044	94.5938	120.3287
20.73522	94.7813	119.2186
20.885475	94.9658	118.1263
21.036821	95.1438	117.0028
21.189262	95.3234	115.9624
21.342808	95.504	114.967
21.497467	95.684	113.9564
21.653246	95.8736	113.0359
21.810154	96.0703	112.1565
21.968201	96.2743	111.2345
22.12739	96.4911	110.3762
22.287735	96.7189	109.515
22.449242	96.9539	108.5607
22.611917	97.2018	107.6354
22.775772	97.4556	106.6585
22.940815	97.7136	105.5693
23.107054	97.9777	104.4886
23.274498	98.2438	103.3534
23.443153	98.5088	102.1115
23.613033	98.7788	100.8886
23.784142	99.051	99.6236
23.956491	99.3242	98.3215
24.130091	99.5962	96.9135
24.304947	99.8745	95.5168
24.481071	100.1529	94.066
24.65847	100.4279	92.4813
24.837156	100.7044	90.8903
25.017136	100.9749	89.2238
25.198421	101.2359	87.4187
25.38102	101.4894	85.6218
25.564941	101.732	83.7705
25.750195	101.96	81.8364
25.93679	102.1798	79.9514
26.124741	102.3916	78.0856
26.314051	102.5926	76.1692
26.504732	102.7965	74.3448
26.696796	103.0004	72.5342
26.890253	103.2044	70.6434
27.085112	103.4154	68.7872
27.281382	103.6305	66.8536
27.479073	103.8437	64.8233
27.678198	104.0477	62.5914
27.878765	104.241	60.3039
28.080786	104.4163	57.8796
28.284271	104.5583	55.3049
28.489231	104.6757	52.7303
28.695675	104.7602	50.1853
28.903616	104.8072	47.6226
29.113064	104.8319	45.2824
29.324028	104.8365	43.1184
29.536524	104.8235	41.1073
29.750557	104.8184	39.379
29.966141	104.8232	37.8606
30.183289	104.8462	36.3968
30.40201	104.8982	35.0918
30.622314	104.9773	33.7876
30.844217	105.0693	32.3437
31.067726	105.1824	30.8769
31.292856	105.2956	29.2863
31.519617	105.406	27.5922
31.74802	105.499	25.735
31.978081	105.5836	23.9264
32.209808	105.6551	22.1108
32.443211	105.7101	20.2546
32.67831	105.7628	18.5172
32.915108	105.8106	16.8261
33.153625	105.8496	15.0833
33.393871	105.8905	13.4334
33.635857	105.9265	11.7849
33.879597	105.9465	10.0542
34.125103	105.9597	8.4198
34.372387	105.9588	6.8182
34.621464	105.9358	5.2118
34.872345	105.9072	3.7891
35.125042	105.8697	2.4913
35.379574	105.8227	1.2479
35.635948	105.7863	0.205500000000001
35.89418	105.757	-0.7372
36.154285	105.7399	-1.62
36.416275	105.7259	-2.5707
36.680161	105.7278	-3.446
36.945961	105.7339	-4.3537
37.213688	105.7349	-5.3879
37.483353	105.7391	-6.3694
37.754974	105.7395	-7.3728
38.028561	105.7275	-8.4684
38.304131	105.717	-9.4657
38.581699	105.7026	-10.4422
38.861279	105.6796	-11.4817
39.142883	105.6654	-12.4094
39.426529	105.6533	-13.3208
39.712231	105.6373	-14.3146
40	105.6324	-15.2229
40.289856	105.6306	-16.1423
40.581814	105.6309	-17.0787
40.875885	105.6239	-18.1221
41.172089	105.6254	-19.0883
41.47044	105.6261	-20.0608
41.77095	105.6171	-21.1236
42.073643	105.6158	-22.0877
42.378525	105.6158	-23.0392
42.685616	105.6068	-24.0698
42.994934	105.6089	-24.9974
43.306492	105.6131	-25.9171
43.620308	105.6091	-26.926
43.936401	105.6156	-27.8414
44.25478	105.6222	-28.7575
44.57547	105.6192	-29.7677
44.898483	105.6259	-30.6826
45.223835	105.6319	-31.5937
45.551544	105.6269	-32.5941
45.88163	105.632	-33.4951
46.214108	105.6363	-34.3932
46.548996	105.6417	-35.2915
46.886307	105.6357	-36.2893
47.226067	105.6403	-37.1964
47.568283	105.6431	-38.1061
47.912983	105.6341	-39.1103
48.260181	105.6341	-40.0088
48.609894	105.6332	-40.8923
48.962143	105.6232	-41.8555
49.31694	105.6276	-42.7059
49.674313	105.6352	-43.547
50.034271	105.6352	-44.4849
50.396843	105.6498	-45.3313
50.762039	105.6688	-46.1877
51.129883	105.6758	-47.1526
51.500389	105.6969	-48.0249
51.873581	105.7172	-48.8978
52.249481	105.7262	-49.8653
52.628101	105.7477	-50.726
53.009464	105.7694	-51.5775
53.393593	105.7923	-52.4201
53.780506	105.8033	-53.3548
54.170223	105.8273	-54.1843
54.562763	105.8517	-55.0095
54.958145	105.8637	-55.9332
55.356396	105.8882	-56.7569
55.75753	105.9139	-57.5832
56.161572	105.9249	-58.514
56.568542	105.9478	-59.351
56.978462	105.971	-60.1927
57.39135	105.977	-61.1377
57.807232	105.9953	-61.9784
58.226128	106.0129	-62.8088
58.648056	106.0149	-63.7258
59.073048	106.0327	-64.5288
59.501114	106.0527	-65.3245
59.932281	106.0597	-66.2209
60.366577	106.082	-67.0209
60.80402	106.1044	-67.8236
61.244629	106.1271	-68.6239
61.688435	106.1331	-69.5176
62.135452	106.156	-70.3017
62.585712	106.1802	-71.08
63.039234	106.1882	-71.9594
63.49604	106.2145	-72.7461
63.956161	106.2401	-73.5483
64.419617	106.2481	-74.4712
64.886421	106.2679	-75.312
65.356621	106.2829	-76.1594
65.830215	106.2739	-77.0927
66.307251	106.2782	-77.8915
66.787743	106.2817	-78.6461
67.271713	106.2697	-79.4623
67.759193	106.2825	-80.1614
68.250206	106.3005	-80.8665
68.744774	106.3055	-81.6934
69.242928	106.3307	-82.4506
69.74469	106.3581	-83.2393
70.250084	106.3868	-84.0654
70.759148	106.3948	-85.0417
71.271896	106.4167	-85.9845
71.788361	106.4269	-86.9833
72.308571	106.4009	-88.0964
72.83255	106.3743	-89.0672
73.360321	106.3339	-89.937
73.891922	106.2669	-90.7771
74.427376	106.2208	-91.3991
74.966705	106.182	-91.9168
75.509949	106.133	-92.4472
76.057121	106.1193	-92.8285
76.608261	106.1239	-93.2038
77.163399	106.1219	-93.7175
77.722557	106.1508	-94.217
78.285767	106.1798	-94.8007
78.853058	106.1838	-95.5382
79.424461	106.2001	-96.2118
80	106.2096	-96.8818
80.579712	106.2125	-97.5221
81.163628	106.1915	-98.2062
81.75177	106.1935	-98.7499
82.344177	106.1997	-99.2561
82.94088	106.1907	-99.8372
83.541901	106.2112	-100.3387
84.147285	106.2369	-100.8685
84.75705	106.2429	-101.5228
85.371231	106.2719	-102.1303
85.989868	106.3011	-102.7822
86.612984	106.3021	-103.5648
87.240616	106.3185	-104.2934
87.872803	106.3251	-105.0215
88.50956	106.2981	-105.7881
89.15094	106.292	-106.4005
89.796967	106.2911	-106.9544
90.44767	106.2711	-107.5681
91.103088	106.2814	-108.1113
91.76326	106.2939	-108.6749
92.428215	106.3057	-109.2505
93.097992	106.2927	-109.9098
93.772614	106.3066	-110.5052
94.452133	106.3228	-111.1404
95.136566	106.3108	-111.9177
95.825966	106.3133	-112.685
96.520363	106.2948	-113.4651
97.219788	106.2298	-114.2286
97.924286	106.1787	-114.7356
98.633881	106.1376	-115.0449
99.348625	106.0956	-115.3032
100.068542	106.1119	-115.4922
100.793686	106.1533	-115.7951
101.524078	106.1793	-116.3472
102.259766	106.2249	-117.0223
103.000778	106.2497	-117.8369
103.747162	106.2167	-118.7507
104.498962	106.1827	-119.5159
105.256203	106.1348	-120.1233
106.018929	106.0861	-120.5674
106.787186	106.0201	-120.9583
107.561012	105.9976	-121.2412
108.340446	105.9864	-121.5302
109.125526	105.9534	-121.9069
109.91629	105.9502	-122.2493
110.712791	105.9442	-122.5881
111.51506	105.9092	-122.9474
112.323143	105.9074	-123.209
113.137085	105.9136	-123.4491
113.956924	105.9016	-123.7526
114.7827	105.9251	-124.0427
115.614464	105.9508	-124.3799
116.452255	105.9488	-124.806
117.296112	105.9746	-125.2159
118.146095	105.9985	-125.6666
119.002228	105.9905	-126.1774
119.864563	106.0075	-126.6704
120.733154	106.0177	-127.1561
121.60804	106.023	-127.6173
122.489258	105.997	-128.0833
123.376869	106.0043	-128.4829
124.270905	106.0158	-128.8863
125.171425	105.9988	-129.3427
126.078468	106.0105	-129.7707
126.992081	106.0222	-130.1937
127.912323	106.0052	-130.6466
128.839233	106.021	-131.0808
129.772842	106.0369	-131.5343
130.713242	106.0209	-132.0245
131.660431	106.0359	-132.4863
132.614502	106.0519	-132.955
133.575485	106.0399	-133.4722
134.543427	106.06	-134.008
135.518387	106.0763	-134.598
136.500412	106.0573	-135.2645
137.489548	106.0586	-135.9582
138.485855	106.0449	-136.6765
139.48938	106.0122	-137.3741
140.500168	105.9312	-137.9906
141.518295	105.8686	-138.4175
142.543793	105.8141	-138.6547
143.576721	105.7531	-138.8041
144.617142	105.7446	-138.9826
145.6651	105.7421	-139.2592
146.720642	105.7011	-139.5766
147.783844	105.6876	-139.8376
148.854752	105.6812	-140.0539
149.933411	105.6542	-140.298
151.019897	105.6587	-140.5967
152.114243	105.6572	-140.9059
153.216522	105.6222	-141.1596
154.326797	105.6268	-141.3536
155.445114	105.6493	-141.551
156.571533	105.6553	-141.8383
157.706116	105.6948	-142.2837
158.848923	105.7193	-142.8568
160	105.7218	-143.4574
161.159424	105.6758	-143.9651
162.327255	105.6602	-144.3672
163.50354	105.6566	-144.7168
164.688354	105.6366	-145.1078
165.88176	105.648	-145.6444
167.083801	105.6402	-146.2899
168.294571	105.5702	-146.8973
169.514099	105.5025	-147.3381
170.742462	105.4307	-147.511
171.979736	105.3487	-147.46
173.225967	105.3258	-147.3719
174.481232	105.3247	-147.3172
175.745605	105.3087	-147.2906
177.019119	105.3347	-147.3465
178.30188	105.3685	-147.4664
179.593933	105.3795	-147.6263
180.89534	105.4203	-147.886
182.206177	105.459	-148.2025
183.52652	105.4925	-148.5583
184.85643	105.4935	-148.907
186.195984	105.52	-149.3271
187.545227	105.5403	-149.785
188.904266	105.5213	-150.1869
190.273132	105.5275	-150.568
191.651932	105.5367	-150.8831
193.040726	105.5277	-151.1509
194.439575	105.5566	-151.522
195.848572	105.5844	-151.9958
197.267761	105.5724	-152.514
198.69725	105.5671	-153.0898
200.137085	105.5426	-153.5597
201.587372	105.4886	-153.8144
203.048157	105.478	-154.0103
204.519531	105.4833	-154.1995
206.001556	105.4693	-154.3776
207.494324	105.4864	-154.6465
208.997925	105.5053	-154.9478
210.512405	105.5241	-155.2907
212.037857	105.5111	-155.6133
213.574371	105.5177	-156.0035
215.122025	105.5161	-156.354
216.680893	105.4861	-156.5689
218.251053	105.4914	-156.7862
219.832581	105.5084	-157.0012
221.425583	105.5064	-157.1978
223.030121	105.5312	-157.5125
224.646286	105.555	-157.8629
226.27417	105.546	-158.1659
227.913849	105.5585	-158.5313
229.565399	105.5678	-158.8522
231.228928	105.5548	-159.0511
232.90451	105.5809	-159.3252
234.592224	105.6157	-159.6804
236.292191	105.6217	-160.0761
238.004456	105.6354	-160.6154
239.729126	105.6249	-161.1113
241.466309	105.6012	-161.4461
243.21608	105.5612	-161.503
244.978516	105.5783	-161.5099
246.753738	105.6371	-161.5593
248.541809	105.7041	-161.7542
250.34285	105.8028	-162.3599
252.156937	105.8792	-163.2929
253.984161	105.8892	-164.374
255.824646	105.8664	-165.606
257.678467	105.7904	-166.7288
259.545685	105.6524	-167.5312
261.426483	105.5221	-168.2173
263.320862	105.3846	-168.6457
265.229004	105.2086	-168.9481
267.15097	105.0139	-169.1388
269.086853	104.769	-168.8065
271.036774	104.491	-167.5618
273.000824	104.3058	-165.5652
274.979095	104.2704	-163.0072
276.97171	104.4278	-160.3753
278.97876	104.7378	-158.2047
281.000336	105.1509	-157.1911
283.036591	105.5378	-157.3273
285.087585	105.8138	-158.1599
287.153442	106.0214	-159.4017
289.234283	106.1599	-160.6789
291.3302	106.2259	-161.7997
293.441284	106.267	-162.8625
295.567688	106.279	-163.6541
297.709503	106.277	-164.0629
299.866821	106.3277	-164.4473
302.039795	106.4102	-164.9602
304.228485	106.4732	-165.6631
306.433044	106.5193	-166.7168
308.653595	106.5044	-167.8124
310.890228	106.4154	-168.5914
313.143066	106.3191	-169.1138
315.412231	106.2246	-169.297
317.697845	106.1479	-169.2064
320	106.0839	-168.8209
322.318848	106.08	-168.449
324.65451	106.1147	-168.1588
327.00708	106.1457	-167.9722
329.376709	106.1803	-168.0185
331.763519	106.1936	-167.9886
334.167603	106.1966	-167.668
336.589142	106.2537	-167.3799
339.028198	106.3456	-167.2509
341.484924	106.4216	-167.3116
343.959473	106.4832	-167.6593
346.451935	106.5065	-167.9414
348.962463	106.5035	-167.865
351.491211	106.5497	-167.6992
354.038239	106.6376	-167.6274
356.60376	106.7206	-167.759
359.187866	106.7903	-168.2322
361.79068	106.8198	-168.7237
364.412354	106.827	-169.0886
367.05304	106.814	-169.2351
369.71286	106.8181	-169.4314
372.391968	106.8168	-169.5954
375.090454	106.7908	-169.5609
377.808533	106.7873	-169.4713
380.546265	106.8086	-169.3051
383.303864	106.8376	-169.1333
386.081451	106.8828	-169.2448
388.87915	106.9077	-169.4782
391.697144	106.8867	-169.5927
394.535522	106.8574	-169.653
397.394501	106.8248	-169.4766
400.27417	106.8018	-168.9714
403.174744	106.8401	-168.4903
406.096313	106.9221	-168.2038
409.039062	106.9951	-168.18
412.003113	107.045	-168.5156
414.988647	107.0485	-168.8719
417.99585	107.018	-169.069
421.024811	106.965	-168.9419
424.075714	106.9351	-168.7367
427.148743	106.9231	-168.4493
430.244049	106.9151	-168.0515
433.361786	106.9309	-167.7806
436.502106	106.9535	-167.5474
439.665161	106.9715	-167.2517
442.851166	107.0129	-167.1704
446.060242	107.0451	-167.3281
449.292572	107.0131	-167.5351
452.54834	106.9222	-167.5615
455.827698	106.8129	-166.9037
459.130798	106.7739	-165.5979
462.457855	106.8695	-164.4974
465.809021	107.023	-164.0867
469.184448	107.121	-164.2704
472.584381	107.1363	-164.7472
476.008911	107.0833	-164.8998
479.458252	107.0251	-164.557
482.932617	107.0091	-163.8572
486.432159	107.0569	-163.3736
489.957031	107.1214	-163.188
493.507477	107.1634	-163.1619
497.083618	107.1887	-163.4047
500.685699	107.1769	-163.7237
504.313873	107.1099	-163.8545
507.968323	107.0219	-163.7767
511.649292	106.9437	-163.313
515.356934	106.9067	-162.5721
519.09137	106.9244	-162.0441
522.852966	106.959	-161.7115
526.641724	106.994	-161.4255
530.458008	107.0483	-161.4467
534.301941	107.0874	-161.7724
538.173706	107.0694	-162.1678
542.073547	107.0125	-162.5154
546.001648	106.9504	-162.5941
549.958191	106.9181	-162.612
553.94342	106.8921	-162.7536
557.95752	106.8516	-163.218
562.000671	106.764	-163.7134
566.073181	106.629	-163.9181
570.175171	106.4943	-163.8968
574.306885	106.3984	-163.6029
578.468567	106.3534	-163.3661
582.6604	106.3354	-163.6906
586.882568	106.2623	-164.4497
591.135376	106.0813	-165.1001
595.419006	105.831	-165.3161
599.733643	105.5705	-164.8342
604.07959	105.3605	-163.7918
608.45697	105.2389	-162.7639
612.866089	105.1682	-161.9201
617.30719	105.1022	-161.1568
621.780457	105.0423	-160.4858
626.286133	104.9904	-159.6967
630.824463	104.9673	-158.7208
635.395691	105.0003	-157.4458
640	105.1521	-156.2018
644.637695	105.4317	-155.3863
649.309021	105.7677	-155.5164
654.01416	106.0493	-156.9328
658.753418	106.1917	-159.0392
663.527039	106.2037	-161.0355
668.335205	106.16	-162.7313
673.178284	106.1062	-164.0619
678.056396	106.0672	-165.069
682.969849	106.0782	-166.1075
687.918945	106.1331	-167.44
692.90387	106.1661	-169.2424
697.924927	106.109	-171.4389
702.982422	105.9277	-173.2225
708.076477	105.7017	-173.9331
713.20752	105.5793	-173.9301
718.375732	105.6128	-173.9848
723.58136	105.7232	-174.7907
728.824707	105.7832	-176.1865
734.106079	105.7656	-177.6568
739.42572	105.7278	-178.6456
744.783936	105.7508	-179.2963
750.180908	105.8389	179.672
755.617065	105.8979	178.1786
761.092529	105.8609	176.8326
766.607727	105.7909	176.1319
772.162903	105.8067	176.0884
777.758301	105.9527	176.0538
783.394287	106.1694	175.3014
789.071045	106.368	173.8905
794.789001	106.498	172.1997
800.54834	106.5656	170.4674
806.349487	106.6021	169.0313
812.192627	106.6504	167.819
818.078125	106.7084	166.6692
824.006226	106.7658	165.3566
829.977295	106.7999	163.9682
835.991699	106.7959	162.6553
842.049622	106.7602	161.4487
848.151428	106.7141	160.507
854.297485	106.6731	159.7968
860.488098	106.6371	159.0612
866.723572	106.593	158.4031
873.004211	106.544	157.928
879.330322	106.5079	157.3992
885.702332	106.4567	156.8173
892.120483	106.3647	156.4606
898.585144	106.2803	156.4629
905.09668	106.2819	156.6241
911.655396	106.3649	156.2091
918.261597	106.4074	154.5966
924.91571	106.2519	152.4373
931.618042	105.8604	151.0701
938.368896	105.3534	151.3867
945.168762	104.9326	152.7102
952.017822	104.6389	153.9713
958.916504	104.3329	155.1193
965.865234	103.9541	156.9987
972.864319	103.6382	159.9504
979.914062	103.5012	162.8996
987.014954	103.4323	164.8317
994.167236	103.2784	166.3555
1001.371399	103.0574	168.3755
1008.627747	102.8653	170.745
1015.936646	102.7083	173.2554
1023.298584	102.5703	176.1675
1030.713867	102.5191	179.512
1038.182739	102.6118	-177.1488
1045.705933	102.7888	-174.3955
1053.283447	102.9615	-172.2353
1060.916016	103.1483	-170.1302
1068.603882	103.4089	-168.2932
1076.347412	103.6939	-167.2623
1084.147095	103.9174	-167.1461
1092.003296	104.049	-167.4326
1099.916382	104.101	-167.6932
1107.886841	104.1104	-167.8603
1115.915039	104.0969	-167.9294
1124.001343	104.0509	-167.8782
1132.146362	103.9752	-167.6343
1140.350342	103.9016	-167.0299
1148.61377	103.8676	-166.182
1156.937134	103.8768	-165.4575
1165.320801	103.9091	-164.8634
1173.765137	103.9571	-164.3454
1182.270752	104.0102	-164.0018
1190.838013	104.0604	-163.6383
1199.467285	104.1304	-163.1953
1208.15918	104.2295	-162.9874
1216.91394	104.3316	-163.0298
1225.732178	104.4206	-163.2256
1234.61438	104.4866	-163.4085
1243.560913	104.5335	-163.4766
1252.572266	104.5945	-163.2258
1261.648926	104.7055	-162.7883
1270.791382	104.8494	-162.5564
1280	104.9913	-162.4103
1289.275391	105.1513	-162.1453
1298.618042	105.3541	-162.0756
1308.02832	105.5559	-162.3844
1317.506836	105.7059	-162.8648
1327.054077	105.8146	-163.3078
1336.67041	105.9053	-163.6266
1346.356567	105.9703	-163.8528
1356.112793	106.003	-163.8832
1365.939697	106.0457	-163.497
1375.837891	106.1407	-162.8985
1385.807739	106.2772	-162.5477
1395.849854	106.4059	-162.5025
1405.964844	106.4994	-162.6043
1416.152954	106.5644	-162.6826
1426.415039	106.6029	-162.8792
1436.751465	106.5874	-163.0768
1447.16272	106.5124	-162.9591
1457.649414	106.4158	-162.4794
1468.212158	106.3313	-161.6241
1478.85144	106.2923	-160.4845
1489.567871	106.3136	-159.4188
1500.361816	106.3711	-158.5772
1511.234131	106.4441	-157.9651
1522.185059	106.5134	-157.7086
1533.215454	106.5567	-157.6851
1544.325806	106.5817	-157.7251
1555.516602	106.605	-157.9421
1566.788574	106.6243	-158.3655
1578.14209	106.6383	-158.9897
1589.578003	106.6434	-159.9616
1601.09668	106.6137	-161.2755
1612.698975	106.5209	-162.7141
1624.385254	106.3799	-163.9226
1636.15625	106.246	-164.9047
1648.012451	106.1572	-165.8079
1659.95459	106.1152	-166.8283
1671.983398	106.1032	-168.1735
1684.099243	106.0953	-169.8408
1696.302856	106.0583	-171.7152
1708.594971	105.9775	-173.6403
1720.976196	105.8605	-175.3679
1733.447144	105.7205	-176.7192
1746.008423	105.5834	-177.6115
1758.660645	105.4915	-178.0137
1771.404663	105.4715	-178.1018
1784.240967	105.5235	-178.1804
1797.170288	105.6185	-178.3413
1810.193359	105.7335	-178.5454
1823.310791	105.8584	-178.8501
1836.523193	105.9784	-179.2102
1849.831421	106.0832	-179.5391
1863.236084	106.1832	-179.7493
1876.737793	106.2841	-179.9562
1890.337524	106.3779	179.8038
1904.035645	106.4499	179.5739
1917.833008	106.4939	179.3344
1931.730469	106.5127	179.1582
1945.728638	106.5167	179.0648
1959.828125	106.5115	178.8784
1974.029907	106.4793	178.6062
1988.334473	106.4113	178.3794
2002.742798	106.314	178.2802
2017.255493	106.2168	178.3947
2031.873291	106.1468	178.5635
2046.597168	106.0976	178.5108
2061.427734	106.0523	178.2143
2076.365479	105.9963	177.6953
2091.411865	105.913	176.9757
2106.566895	105.8077	176.2144
2121.832031	105.6924	175.4145
2137.207764	105.5614	174.5964
2152.694824	105.4151	173.7738
2168.294189	105.2618	173.0423
2184.006592	105.1128	172.4426
2199.832764	104.9754	171.8681
2215.773682	104.843	171.3229
2231.830078	104.705	170.8975
2248.002686	104.5607	170.61
2264.292725	104.4163	170.5527
2280.700684	104.2873	170.7256
2297.227539	104.1799	170.9346
2313.874268	104.0744	171.1528
2330.641602	103.9614	171.4716
2347.530273	103.85	171.8235
2364.541504	103.7346	172.1199
2381.676025	103.5936	172.3725
2398.93457	103.4172	172.6484
2416.318359	103.2177	173.0418
2433.827881	103.0122	173.4774
2451.464355	102.8012	173.8631
2469.22876	102.5767	174.0955
2487.121826	102.3322	174.2106
2505.144531	102.0642	174.2518
2523.297852	101.7747	174.2004
2541.582764	101.4661	174.1526
2560	101.1551	174.1759
2578.550781	100.8567	174.2037
2597.236084	100.5782	174.2505
2616.056641	100.3302	174.3408
2635.013672	100.1186	174.3844
2654.108154	99.9371	174.3944
2673.34082	99.7781	174.4812
2692.713135	99.6475	174.6311
2712.225586	99.5449	174.8354
2731.879395	99.4549	175.1353
2751.675781	99.3693	175.5571
2771.615479	99.2787	176.1997
2791.699707	99.1852	177.1368
2811.929688	99.0932	178.4262
2832.305908	99.0175	179.9735
2852.830078	98.961	-178.2919
2873.50293	98.927	-176.4453
2894.325439	98.9143	-174.6567
2915.298828	98.9097	-173.0261
2936.424316	98.8957	-171.5694
2957.702881	98.865	-170.303
2979.135742	98.8173	-169.192
3000.723633	98.7533	-168.2357
3022.468262	98.6657	-167.4611
3044.370117	98.5521	-166.7607
3066.430908	98.4171	-166.0116
3088.651611	98.2754	-165.1843
3111.033203	98.1418	-164.2232
3133.577148	98.0298	-163.1137
3156.28418	97.947	-161.9325
3179.156006	97.8934	-160.71
3202.193359	97.8617	-159.4929
3225.397949	97.8387	-158.2794
3248.770508	97.8139	-157.0713
3272.3125	97.7832	-155.7874
3296.024902	97.7522	-154.3848
3319.90918	97.7285	-152.9332
3343.966797	97.7138	-151.5046
3368.198486	97.7018	-150.1813
3392.605713	97.68	-149.0095
3417.189941	97.6483	-147.8691
3441.952393	97.6283	-146.6978
3466.894287	97.6426	-145.6145
3492.016846	97.6959	-144.682
3517.321289	97.7879	-143.9212
3542.809326	97.9132	-143.3754
3568.481934	98.0604	-142.9826
3594.340576	98.2194	-142.6354
3620.386719	98.3886	-142.2546
3646.621582	98.5729	-141.7368
3673.046387	98.7761	-141.0721
3699.662842	98.9951	-140.2837
3726.472168	99.2213	-139.4446
3753.475586	99.4475	-138.5588
3780.675049	99.6735	-137.6481
3808.071289	99.8987	-136.8212
3835.666016	100.122	-136.1359
3863.460938	100.338	-135.6222
3891.457275	100.5491	-135.3452
3919.65625	100.7594	-135.3188
3948.059814	100.9684	-135.5412
3976.668945	101.1776	-136.0245
4005.485596	101.3868	-136.6904
4034.510986	101.6048	-137.4442
4063.746582	101.837	-138.2643
4093.194336	102.0881	-139.1206
4122.855469	102.3541	-139.9931
4152.730957	102.6304	-140.889
4182.82373	102.9155	-141.772
4213.133789	103.2106	-142.6671
4243.664062	103.5146	-143.6287
4274.415527	103.8218	-144.7661
4305.389648	104.124	-146.129
4336.588379	104.412	-147.7413
4368.013184	104.6762	-149.6361
4399.665527	104.9123	-151.7674
4431.547363	105.1163	-154.0637
4463.660156	105.2875	-156.4879
4496.005371	105.4247	-158.9576
4528.585449	105.5347	-161.3939
4561.401367	105.6248	-163.8005
4594.455078	105.704	-166.1958
4627.748535	105.773	-168.6153
4661.283203	105.8321	-171.1097
4695.060547	105.8853	-173.6553
4729.083008	105.9433	-176.2186
4763.352051	106.0264	-178.8267
4797.869141	106.1545	178.4887
4832.636719	106.3367	175.6276
4867.655762	106.5657	172.4723
4902.928711	106.8108	168.8937
4938.45752	107.031	164.8894
4974.243652	107.186	160.6605
5010.289062	107.264	156.4673
5046.595703	107.2832	152.5185
5083.165527	107.2802	148.8529
5120	107.2803	145.2967
5157.101562	107.2995	141.6868
5194.472168	107.3415	137.8977
5232.113281	107.4036	133.8064
5270.027344	107.4737	129.3698
5308.216309	107.5257	124.6676
5346.681641	107.5377	119.7962
5385.42627	107.4929	114.876
5424.451172	107.381	109.9857
5463.758789	107.193	105.1316
5503.351562	106.9131	100.2895
5543.230957	106.5332	95.5335
5583.399414	106.0532	90.9854
5623.859375	105.4833	86.7579
5664.611816	104.8464	82.9972
5705.660156	104.1744	79.7986
5747.005859	103.4945	77.1734
5788.650879	102.8076	75.278
5830.597656	102.0686	74.765
5872.848633	101.2337	77.0201
5915.405762	100.3708	83.4213
5958.271484	99.6538	93.761
6001.447266	99.1599	105.7613
6044.936523	98.808	116.0988
6088.740234	98.525	122.4215
6132.861816	98.289	124.8037
6177.303223	98.0831	124.8625
6222.066406	97.9002	124.0167
6267.154297	97.7402	122.9904
6312.568359	97.5942	121.9496
6358.312012	97.4253	120.8671
6404.386719	97.1873	119.7083
6450.795898	96.8374	118.3997
6497.541016	96.3485	116.9184
6544.625	95.7065	115.2953
6592.049805	94.9036	113.7302
6639.818359	93.9337	112.8182
6687.933594	92.8047	113.6204
6736.396973	91.5537	117.542
6785.211426	90.3128	126.0081
6834.379883	89.4478	139.546
6883.904785	89.5028	156.596
6933.788574	90.6159	173.757
6984.033691	92.3039	-172.4185
7034.642578	94.0749	-163.7593
7085.618652	95.682	-160.4009
7136.963867	97.034	-161.4388
7188.681152	98.0931	-165.685
7240.773438	98.8492	-171.7617
7293.243164	99.3192	-178.3115
7346.092773	99.5392	175.6579
7399.325684	99.5603	170.6546
7452.944336	99.4433	166.7758
7506.951172	99.2463	163.7644
7561.350098	99.0194	161.3087
7616.142578	98.7964	159.293
7671.332031	98.6024	157.7312
7726.921875	98.4455	156.7074
7782.914551	98.3175	156.2785
7839.3125	98.1995	156.3078
7896.119629	98.0756	156.5464
7953.337891	97.9417	156.6742
8010.971191	97.8067	156.4307
8069.021973	97.6717	155.6591
8127.493164	97.5308	154.5043
8186.388672	97.3738	153.3271
8245.710938	97.1938	152.3733
8305.461914	96.9819	151.5252
8365.647461	96.7009	150.4685
8426.267578	96.2709	149.0013
8487.328125	95.6199	147.6659
8548.831055	94.7799	147.3129
8610.779297	93.8809	148.3532
8673.176758	93.0201	150.9869
8736.026367	92.2071	155.8244
8799.331055	91.4541	163.4125
8863.094727	90.9041	173.6779
8927.320312	90.8221	-174.7075
8992.010742	91.3381	-164.1894
9057.170898	92.2291	-157.0526
9122.802734	93.1552	-153.9536
9188.910156	93.9202	-153.7628
9255.49707	94.4682	-154.7618
9322.566406	94.8333	-155.6106
9390.121094	95.0963	-155.7562
9458.166016	95.3353	-155.5349
9526.704102	95.5763	-155.5393
9595.738281	95.7984	-156.078
9665.273438	95.9704	-157.0686
9735.311523	96.0645	-158.388
9805.857422	96.0605	-159.9955
9876.915039	95.9345	-162.0962
9948.487305	95.6545	-164.7927
10020.578125	95.1785	-167.8158
10093.191406	94.4615	-170.3835
10166.331055	93.4656	-171.3474
10240	92.1716	-169.3677
10314.203125	90.6046	-163.3271
10388.944336	88.9056	-152.4858
10464.226562	87.4936	-136.8561
10540.054688	87.1876	-117.7449
10616.432617	88.4326	-97.9822
10693.363281	90.5496	-80.978
10770.852539	92.7606	-69.0988
10848.902344	94.7486	-62.8115
10927.517578	96.4626	-61.0925
11006.703125	97.9436	-62.4012
11086.461914	99.2466	-65.4168
11166.798828	100.4026	-69.3464
11247.71875	101.4036	-73.9426
11329.223633	102.2096	-79.2669
11411.320312	102.7766	-85.1862
11494.011719	103.1176	-90.9821
11577.301758	103.3496	-95.7618
11661.195312	103.6526	-99.5618
11745.697266	104.0776	-103.646
11830.811523	104.4836	-109.2587
11916.542969	104.7156	-116.4616
12002.894531	104.7286	-124.4798
12089.873047	104.5506	-132.8052
12177.480469	104.1816	-141.4584
12265.723633	103.5836	-150.3639
12354.606445	102.7566	-159.0873
12444.132812	101.7606	-167.17
12534.308594	100.6726	-174.4889
12625.136719	99.5216	178.5701
12716.624023	98.2946	171.148
12808.773438	96.9886	162.2253
12901.591797	95.6736	151.0626
12995.082031	94.4916	137.3196
13089.25	93.6396	120.7374
13184.099609	93.2946	101.0091
13279.636719	93.4826	78.3272
13375.867188	93.9846	53.8645
13472.793945	94.4646	29.332
13570.422852	94.6486	6.4205
13668.759766	94.4136	-13.2523
13767.80957	93.7706	-28.4799
13867.577148	92.7926	-38.8456
13968.067383	91.5736	-44.533
14069.285156	90.2376	-46.1139
14171.237305	88.9766	-44.8101
14273.927734	87.9636	-42.5275
14377.362305	87.1996	-41.1654
14481.546875	86.4996	-41.9915
14586.486328	85.6386	-46.0023
14692.185547	84.4726	-55.4365
14798.651367	83.0606	-75.2504
14905.888672	81.9086	-111.3193
15013.902344	81.7506	-163.214
15122.700195	82.2406	141.3419
15232.285156	82.3796	99.6868
15342.664062	82.0346	81.3497
15453.84375	82.1596	83.0294
15565.829102	83.6236	94.2242
15678.625	85.8646	105.6158
15792.239258	88.0596	112.2943
15906.675781	89.8316	112.8389
16021.942383	91.0346	108.1998
16138.043945	91.6386	101.0192
16254.986328	91.7136	94.3784
16372.777344	91.4116	90.4662
16491.421875	90.9646	90.259
16610.923828	90.7276	93.7363
16731.294922	91.1006	99.4368
16852.535156	92.0706	104.0912
16974.65625	93.1116	104.4852
17097.662109	93.7906	100.357
17221.558594	94.0576	93.8126
17346.353516	94.0166	86.2125
17472.052734	93.6336	78.1481
17598.662109	92.7716	71.3119
17726.189453	91.3946	67.8717
17854.640625	89.6656	68.254
17984.021484	87.9046	70.6448
18114.341797	86.3306	73.1637
18245.605469	84.8306	76.3236
18377.820312	83.1306	83.0531
18510.994141	81.1476	95.8214
18645.132812	79.2456	113.3573
18780.242188	78.1096	131.2541
18916.332031	77.8776	145.9958
19053.408203	77.9876	157.5945
19191.476562	78.1616	168.4913
19330.546875	78.6726	179.7838
19470.623047	79.6606	-170.9066
19611.714844	80.7346	-166.4747
19753.830078	81.5316	-166.6969
19896.974609	81.9866	-168.8359

