* Measurement data measured by REW V5.20.13
* Source: default [default], no input selected, 2, volume: no control
* Format: 256k Log Swept Sine, 1 sweep at 0.0 dBFS, at 48000 Hz
* Dated: Feb 21, 2023 1:05:26 PM
* Sense Resistor: 99.8
* Lead resistance: 0.000
* Input resistance: 20000.000
* Calibration factor: 1.0000
* Note: 
* Measurement: Woofer Impedance
* Smoothing: 1/24 octave
* Frequency Step: 1/96 octave
* Start Frequency: 20.000 Hz
*
* Freq(Hz)	Z(Ohms)	Phase(degrees)
20.000000	22.644888	23.9397
20.144928	22.907665	24.1699
20.290907	23.186895	24.3868
20.437943	23.484816	24.5880
20.586044	23.806005	24.7700
20.735220	24.149754	24.9346
20.885475	24.520161	25.0668
21.036821	24.919399	25.1645
21.189262	25.346815	25.2216
21.342808	25.802572	25.2240
21.497467	26.287369	25.1738
21.653246	26.801943	25.0663
21.810154	27.344326	24.9010
21.968201	27.924973	24.6727
22.127390	28.546230	24.3865
22.287735	29.215698	24.0236
22.449242	29.952574	23.5597
22.611917	30.754047	22.9909
22.775772	31.625854	22.2300
22.940815	32.575966	21.2860
23.107054	33.554684	20.0643
23.274498	34.574520	18.5418
23.443153	35.552094	16.6974
23.613033	36.458992	14.4876
23.784142	37.236839	11.9566
23.956491	37.804012	9.1126
24.130091	38.145954	6.0104
24.304947	38.171623	2.7609
24.481071	37.892311	-0.5983
24.658470	37.275818	-3.8371
24.837156	36.338257	-6.9483
25.017136	35.162113	-9.6738
25.198421	33.754047	-12.0255
25.381020	32.279587	-13.8839
25.564941	30.736217	-15.2581
25.750195	29.262142	-16.1902
25.936790	27.852165	-16.6818
26.124741	26.563881	-16.8271
26.314051	25.394438	-16.6292
26.504732	24.357210	-16.1857
26.696796	23.449219	-15.5091
26.890253	22.665211	-14.6967
27.085112	21.996435	-13.7623
27.281382	21.424574	-12.7716
27.479073	20.938671	-11.7352
27.678198	20.524452	-10.6792
27.878765	20.171261	-9.6186
28.080786	19.873922	-8.5633
28.284271	19.620054	-7.5280
28.489231	19.407734	-6.5165
28.695675	19.225658	-5.5326
28.903616	19.073015	-4.5764
29.113064	18.943871	-3.6471
29.324028	18.836458	-2.7467
29.536524	18.748413	-1.8771
29.750557	18.675310	-1.0367
29.966141	18.615942	-0.2253
30.183289	18.567389	0.5652
30.402010	18.529892	1.3352
30.622314	18.503479	2.0876
30.844217	18.487255	2.8189
31.067726	18.480913	3.5278
31.292856	18.481831	4.2145
31.519617	18.489563	4.8809
31.748020	18.503136	5.5302
31.978081	18.522654	6.1635
32.209808	18.547972	6.7810
32.443211	18.578453	7.3815
32.678310	18.613245	7.9667
32.915108	18.651859	8.5371
33.153625	18.694019	9.0959
33.393871	18.739746	9.6430
33.635857	18.789038	10.1787
33.879597	18.841217	10.7027
34.125103	18.895655	11.2163
34.372387	18.951733	11.7205
34.621464	19.009018	12.2202
34.872345	19.068247	12.7181
35.125042	19.130108	13.2164
35.379574	19.196350	13.7149
35.635948	19.267193	14.2099
35.894180	19.342554	14.6994
36.154285	19.421337	15.1813
36.416275	19.502604	15.6583
36.680161	19.586281	16.1330
36.945961	19.672581	16.6086
37.213688	19.762892	17.0884
37.483353	19.858831	17.5717
37.754974	19.961573	18.0565
38.028561	20.072042	18.5380
38.304131	20.189146	19.0112
38.581699	20.311357	19.4763
38.861279	20.437647	19.9357
39.142883	20.567579	20.3944
39.426529	20.702660	20.8581
39.712231	20.844938	21.3280
40.000000	20.996189	21.8029
40.289856	21.157848	22.2804
40.581814	21.330564	22.7562
40.875885	21.513880	23.2272
41.172089	21.706930	23.6928
41.470440	21.908939	24.1546
41.770950	22.119581	24.6161
42.073643	22.339613	25.0827
42.378525	22.571554	25.5587
42.685616	22.818562	26.0443
42.994934	23.083351	26.5361
43.306492	23.367645	27.0288
43.620308	23.671967	27.5168
43.936401	23.995880	27.9964
44.254780	24.338921	28.4671
44.575470	24.701462	28.9301
44.898483	25.084705	29.3867
45.223835	25.490685	29.8384
45.551544	25.922417	30.2854
45.881630	26.383789	30.7265
46.214108	26.879026	31.1578
46.548996	27.411860	31.5730
46.886307	27.985542	31.9665
47.226067	28.604403	32.3343
47.568283	29.274618	32.6706
47.912983	30.002182	32.9656
48.260181	30.791491	33.2088
48.609894	31.648102	33.3941
48.962143	32.583160	33.5172
49.316940	33.613262	33.5647
49.674313	34.752983	33.5050
50.034271	36.004532	33.2934
50.396843	37.354332	32.8904
50.762039	38.780346	32.2783
51.129883	40.264328	31.4628
51.500389	41.798183	30.4584
51.873581	43.380901	29.2731
52.249481	45.011009	27.9033
52.628101	46.681114	26.3367
53.009464	48.375305	24.5574
53.393593	50.066883	22.5497
53.780506	51.717453	20.3030
54.170223	53.279572	17.8171
54.562763	54.701267	15.1036
54.958145	55.930206	12.1849
55.356396	56.917007	9.0929
55.757530	57.618050	5.8678
56.161572	57.998524	2.5579
56.568542	58.035805	-0.7803
56.978462	57.725349	-4.0823
57.391350	57.087845	-7.2816
57.807232	56.170036	-10.3249
58.226128	55.030956	-13.1844
58.648056	53.720966	-15.8525
59.073048	52.275322	-18.3238
59.501114	50.723984	-20.5838
59.932281	49.102074	-22.6151
60.366577	47.450798	-24.4083
60.804020	45.809814	-25.9686
61.244629	44.208771	-27.3113
61.688435	42.666454	-28.4550
62.135452	41.193626	-29.4165
62.585712	39.797031	-30.2111
63.039234	38.480862	-30.8551
63.496040	37.246037	-31.3641
63.956161	36.090405	-31.7531
64.419617	35.010815	-32.0340
64.886421	34.004318	-32.2185
65.356621	33.067463	-32.3182
65.830215	32.195656	-32.3437
66.307251	31.384188	-32.3036
66.787743	30.629379	-32.2054
67.271713	29.927711	-32.0565
67.759193	29.275490	-31.8644
68.250206	28.669178	-31.6356
68.744774	28.105110	-31.3754
69.242928	27.579670	-31.0879
69.744690	27.090034	-30.7759
70.250084	26.633539	-30.4422
70.759148	26.207531	-30.0890
71.271896	25.809956	-29.7176
71.788361	25.439175	-29.3294
72.308571	25.093834	-28.9276
72.832550	24.772007	-28.5156
73.360321	24.471201	-28.0963
73.891922	24.189236	-27.6711
74.427376	23.924328	-27.2414
74.966705	23.675001	-26.8093
75.509949	23.439240	-26.3773
76.057121	23.215094	-25.9461
76.608261	23.001005	-25.5150
77.163399	22.796398	-25.0830
77.722557	22.601313	-24.6505
78.285767	22.415741	-24.2192
78.853058	22.239265	-23.7913
79.424461	22.071369	-23.3677
80.000000	21.911690	-22.9492
80.579712	21.760048	-22.5364
81.163628	21.616232	-22.1300
81.751770	21.479923	-21.7309
82.344177	21.350727	-21.3391
82.940880	21.228294	-20.9545
83.541901	21.112392	-20.5767
84.147285	21.002762	-20.2051
84.757050	20.899246	-19.8391
85.371231	20.801893	-19.4784
85.989868	20.710632	-19.1235
86.612984	20.625031	-18.7752
87.240616	20.544525	-18.4337
87.872803	20.468588	-18.0987
88.509560	20.396706	-17.7703
89.150940	20.328373	-17.4480
89.796967	20.263222	-17.1312
90.447670	20.201029	-16.8195
91.103088	20.141701	-16.5121
91.763260	20.085213	-16.2091
92.428215	20.031498	-15.9100
93.097992	19.980532	-15.6145
93.772614	19.932447	-15.3223
94.452133	19.887394	-15.0336
95.136566	19.845297	-14.7495
95.825966	19.805767	-14.4712
96.520363	19.768234	-14.1996
97.219788	19.731945	-13.9352
97.924286	19.695972	-13.6781
98.633881	19.659470	-13.4266
99.348625	19.622326	-13.1772
100.068542	19.585634	-12.9268
100.793686	19.551205	-12.6755
101.524078	19.520432	-12.4261
102.259766	19.493778	-12.1826
103.000778	19.470863	-11.9476
103.747162	19.450809	-11.7220
104.498962	19.432535	-11.5050
105.256203	19.414896	-11.2944
106.018929	19.396954	-11.0871
106.787186	19.378265	-10.8797
107.561012	19.358896	-10.6703
108.340446	19.339216	-10.4587
109.125526	19.319599	-10.2466
109.916290	19.300165	-10.0369
110.712791	19.280788	-9.8315
111.515060	19.261486	-9.6308
112.323143	19.242826	-9.4338
113.137085	19.225723	-9.2399
113.956924	19.210926	-9.0486
114.782700	19.198833	-8.8597
115.614464	19.189552	-8.6727
116.452255	19.182747	-8.4881
117.296112	19.177528	-8.3065
118.146095	19.172724	-8.1282
119.002228	19.167360	-7.9526
119.864563	19.161127	-7.7789
120.733154	19.154444	-7.6071
121.608040	19.148153	-7.4383
122.489258	19.142994	-7.2741
123.376869	19.139322	-7.1157
124.270905	19.137102	-6.9627
125.171425	19.136055	-6.8135
126.078468	19.135849	-6.6658
126.992081	19.136215	-6.5182
127.912323	19.136782	-6.3710
128.839233	19.136965	-6.2252
129.772842	19.136332	-6.0815
130.713242	19.135159	-5.9397
131.660431	19.134422	-5.7999
132.614502	19.135189	-5.6628
133.575485	19.138008	-5.5289
134.543427	19.142618	-5.3975
135.518387	19.148106	-5.2666
136.500412	19.153448	-5.1333
137.489548	19.157988	-4.9958
138.485855	19.161596	-4.8547
139.489380	19.164488	-4.7129
140.500168	19.166950	-4.5743
141.518295	19.169378	-4.4406
142.543793	19.172495	-4.3100
143.576721	19.177395	-4.1787
144.617142	19.185163	-4.0424
145.665100	19.196331	-3.8988
146.720642	19.210758	-3.7489
147.783844	19.227455	-3.5993
148.854752	19.244066	-3.4605
149.933411	19.256826	-3.3421
151.019897	19.262260	-3.2456
152.114243	19.259607	-3.1643
153.216522	19.251379	-3.0888
154.326797	19.241798	-3.0116
155.445114	19.234768	-2.9290
156.571533	19.232502	-2.8401
157.706116	19.235245	-2.7461
158.848923	19.241938	-2.6485
160.000000	19.250937	-2.5496
161.159424	19.260504	-2.4511
162.327255	19.269442	-2.3529
163.503540	19.277678	-2.2531
164.688354	19.285973	-2.1506
165.881760	19.295025	-2.0461
167.083801	19.304874	-1.9413
168.294571	19.314972	-1.8382
169.514099	19.324530	-1.7384
170.742462	19.333038	-1.6430
171.979736	19.340424	-1.5520
173.225967	19.346958	-1.4644
174.481232	19.353104	-1.3784
175.745605	19.359537	-1.2919
177.019119	19.366920	-1.2043
178.301880	19.375479	-1.1169
179.593933	19.385006	-1.0316
180.895340	19.395294	-0.9493
182.206177	19.406368	-0.8698
183.526520	19.418310	-0.7919
184.856430	19.430899	-0.7143
186.195984	19.443348	-0.6350
187.545227	19.454573	-0.5526
188.904266	19.463894	-0.4660
190.273132	19.471512	-0.3763
191.651932	19.478237	-0.2864
193.040726	19.484949	-0.1995
194.439575	19.492357	-0.1166
195.848572	19.501007	-0.0366
197.267761	19.511021	0.0414
198.697250	19.521847	0.1180
200.137085	19.532541	0.1933
201.587372	19.542561	0.2677
203.048157	19.552185	0.3413
204.519531	19.562065	0.4135
206.001556	19.572578	0.4840
207.494324	19.583567	0.5531
208.997925	19.594564	0.6213
210.512405	19.605141	0.6888
212.037857	19.615126	0.7551
213.574371	19.624752	0.8203
215.122025	19.634769	0.8852
216.680893	19.646078	0.9507
218.251053	19.658991	1.0162
219.832581	19.672932	1.0813
221.425583	19.686901	1.1458
223.030121	19.700117	1.2110
224.646286	19.712336	1.2791
226.274170	19.723776	1.3519
227.913849	19.734707	1.4297
229.565399	19.745014	1.5094
231.228928	19.754265	1.5869
232.904510	19.762482	1.6588
234.592224	19.770514	1.7237
236.292191	19.779419	1.7826
238.004456	19.789423	1.8389
239.729126	19.799755	1.8985
241.466309	19.809391	1.9661
243.216080	19.817797	2.0431
244.978516	19.825417	2.1269
246.753738	19.833864	2.2130
248.541809	19.845398	2.2970
250.342850	19.861626	2.3760
252.156937	19.882671	2.4502
253.984161	19.907616	2.5220
255.824646	19.935564	2.5934
257.678467	19.966410	2.6633
259.545685	20.000725	2.7261
261.426483	20.038555	2.7724
263.320862	20.077742	2.7932
265.229004	20.113651	2.7868
267.150970	20.141644	2.7639
269.086853	20.160967	2.7428
271.036774	20.176121	2.7353
273.000824	20.193172	2.7353
274.979095	20.213419	2.7221
276.971710	20.230682	2.6797
278.978760	20.235775	2.6152
281.000336	20.224379	2.5564
283.036591	20.200640	2.5315
285.087585	20.173637	2.5514
287.153442	20.151369	2.6085
289.234283	20.137756	2.6871
291.330200	20.133123	2.7727
293.441284	20.135996	2.8561
295.567688	20.144514	2.9330
297.709503	20.156916	3.0032
299.866821	20.171350	3.0683
302.039795	20.185925	3.1305
304.228485	20.199390	3.1903
306.433044	20.211643	3.2464
308.653595	20.223475	3.2968
310.890228	20.235722	3.3418
313.143066	20.248672	3.3837
315.412231	20.262056	3.4255
317.697845	20.275478	3.4696
320.000000	20.288731	3.5176
322.318848	20.301907	3.5700
324.654510	20.315315	3.6254
327.007080	20.329121	3.6806
329.376709	20.342972	3.7325
331.763519	20.356281	3.7805
334.167603	20.368736	3.8257
336.589142	20.380241	3.8686
339.028198	20.390650	3.9086
341.484924	20.400162	3.9455
343.959473	20.409519	3.9797
346.451935	20.419437	4.0122
348.962463	20.430143	4.0447
351.491211	20.441576	4.0790
354.038239	20.453672	4.1159
356.603760	20.466299	4.1555
359.187866	20.479168	4.1973
361.790680	20.492077	4.2404
364.412354	20.505117	4.2835
367.053040	20.518385	4.3253
369.712860	20.531578	4.3659
372.391968	20.544147	4.4059
375.090454	20.555901	4.4459
377.808533	20.567373	4.4853
380.546265	20.579607	4.5233
383.303864	20.593384	4.5588
386.081451	20.608614	4.5913
388.879150	20.624481	4.6210
391.697144	20.640345	4.6495
394.535522	20.656219	4.6785
397.394501	20.672373	4.7082
400.274170	20.688807	4.7371
403.174744	20.705116	4.7646
406.096313	20.720621	4.7920
409.039062	20.734735	4.8216
412.003113	20.747368	4.8550
414.988647	20.759058	4.8915
417.995850	20.770615	4.9293
421.024811	20.782431	4.9667
424.075714	20.794270	5.0041
427.148743	20.805759	5.0426
430.244049	20.816986	5.0820
433.361786	20.828484	5.1205
436.502106	20.840919	5.1552
439.665161	20.854834	5.1847
442.851166	20.870380	5.2104
446.060242	20.886997	5.2351
449.292572	20.903606	5.2621
452.548340	20.919250	5.2928
455.827698	20.933649	5.3266
459.130798	20.947477	5.3614
462.457855	20.961924	5.3951
465.809021	20.977663	5.4273
469.184448	20.994539	5.4591
472.584381	21.012310	5.4920
476.008911	21.031097	5.5267
479.458252	21.050875	5.5620
482.932617	21.071152	5.5964
486.432159	21.091379	5.6292
489.957031	21.111134	5.6600
493.507477	21.130056	5.6875
497.083618	21.148088	5.7088
500.685699	21.165630	5.7230
504.313873	21.183065	5.7313
507.968323	21.200115	5.7356
511.649292	21.215605	5.7366
515.356934	21.228088	5.7348
519.091370	21.236908	5.7322
522.852966	21.242599	5.7326
526.641724	21.246260	5.7389
530.458008	21.248856	5.7522
534.301941	21.251266	5.7718
538.173706	21.254515	5.7964
542.073547	21.259483	5.8252
546.001648	21.266500	5.8577
549.958191	21.275383	5.8930
553.943420	21.285912	5.9305
557.957520	21.297775	5.9698
562.000671	21.310211	6.0097
566.073181	21.322346	6.0492
570.175171	21.333994	6.0877
574.306885	21.345791	6.1250
578.468567	21.358582	6.1610
582.660400	21.372820	6.1952
586.882568	21.388515	6.2281
591.135376	21.405378	6.2614
595.419006	21.422819	6.2967
599.733643	21.440248	6.3338
604.079590	21.457867	6.3700
608.456970	21.476933	6.4024
612.866089	21.498756	6.4304
617.307190	21.523502	6.4551
621.780457	21.550158	6.4769
626.286133	21.577066	6.4929
630.824463	21.602306	6.4985
635.395691	21.624159	6.4911
640.000000	21.641441	6.4727
644.637695	21.653595	6.4489
649.309021	21.660873	6.4268
654.014160	21.664545	6.4126
658.753418	21.666775	6.4104
663.527039	21.669754	6.4202
668.335205	21.674538	6.4389
673.178284	21.680849	6.4635
678.056396	21.688242	6.4926
682.969849	21.696924	6.5256
687.918945	21.707451	6.5622
692.903870	21.720158	6.6008
697.924927	21.734814	6.6385
702.982422	21.750465	6.6734
708.076477	21.766031	6.7065
713.207520	21.781116	6.7393
718.375732	21.796032	6.7719
723.581360	21.811033	6.8029
728.824707	21.825943	6.8311
734.106079	21.840736	6.8571
739.425720	21.855801	6.8826
744.783936	21.871071	6.9085
750.180908	21.885723	6.9356
755.617065	21.899176	6.9647
761.092529	21.911888	6.9956
766.607727	21.924994	7.0278
772.162903	21.939535	7.0607
777.758301	21.955797	7.0949
783.394287	21.973015	7.1295
789.071045	21.990068	7.1614
794.789001	22.006573	7.1873
800.548340	22.022978	7.2067
806.349487	22.039871	7.2217
812.192627	22.057123	7.2347
818.078125	22.073717	7.2470
824.006226	22.088579	7.2598
829.977295	22.101480	7.2750
835.991699	22.113201	7.2948
842.049622	22.124712	7.3189
848.151428	22.136524	7.3449
854.297485	22.148958	7.3707
860.488098	22.162292	7.3973
866.723572	22.176542	7.4266
873.004211	22.191584	7.4588
879.330322	22.207409	7.4918
885.702332	22.224209	7.5239
892.120483	22.242035	7.5549
898.585144	22.260342	7.5853
905.096680	22.278339	7.6146
911.655396	22.295685	7.6421
918.261597	22.312641	7.6669
924.915710	22.329620	7.6882
931.618042	22.346760	7.7076
938.368896	22.364054	7.7273
945.168762	22.381645	7.7477
952.017822	22.399508	7.7666
958.916504	22.417377	7.7815
965.865234	22.435349	7.7932
972.864319	22.453934	7.8040
979.914062	22.473228	7.8146
987.014954	22.492519	7.8249
994.167236	22.510906	7.8355
1001.371399	22.527969	7.8479
1008.627747	22.544008	7.8626
1015.936646	22.559469	7.8779
1023.298584	22.574394	7.8903
1030.713867	22.588467	7.8968
1038.182739	22.601221	7.8961
1045.705933	22.612358	7.8884
1053.283447	22.622135	7.8757
1060.916016	22.631126	7.8612
1068.603882	22.639648	7.8487
1076.347412	22.647833	7.8421
1084.147095	22.656027	7.8436
1092.003296	22.664587	7.8526
1099.916382	22.673750	7.8662
1107.886841	22.683498	7.8813
1115.915039	22.693245	7.8966
1124.001343	22.702122	7.9128
1132.146362	22.709946	7.9317
1140.350342	22.717842	7.9545
1148.613770	22.727415	7.9803
1156.937134	22.739426	8.0070
1165.320801	22.753109	8.0324
1173.765137	22.766832	8.0542
1182.270752	22.779699	8.0711
1190.838013	22.792250	8.0838
1199.467285	22.805218	8.0939
1208.159180	22.818193	8.1042
1216.913940	22.830254	8.1166
1225.732178	22.841272	8.1303
1234.614380	22.852001	8.1435
1243.560913	22.863096	8.1556
1252.572266	22.874727	8.1680
1261.648926	22.886616	8.1820
1270.791382	22.898033	8.1964
1280.000000	22.908222	8.2097
1289.275391	22.917019	8.2228
1298.618042	22.925022	8.2375
1308.028320	22.932976	8.2544
1317.506836	22.941036	8.2721
1327.054077	22.949102	8.2902
1336.670410	22.957317	8.3095
1346.356567	22.965828	8.3315
1356.112793	22.974512	8.3559
1365.939697	22.983217	8.3804
1375.837891	22.991982	8.4033
1385.807739	23.000843	8.4247
1395.849854	23.009789	8.4451
1405.964844	23.018995	8.4648
1416.152954	23.028515	8.4844
1426.415039	23.037691	8.5048
1436.751465	23.045563	8.5268
1447.162720	23.052177	8.5501
1457.649414	23.058521	8.5734
1468.212158	23.065287	8.5957
1478.851440	23.072430	8.6166
1489.567871	23.079588	8.6361
1500.361816	23.086504	8.6551
1511.234131	23.093290	8.6745
1522.185059	23.100168	8.6953
1533.215454	23.107004	8.7185
1544.325806	23.113655	8.7443
1555.516602	23.120504	8.7713
1566.788574	23.128281	8.7970
1578.142090	23.137510	8.8198
1589.578003	23.148115	8.8403
1601.096680	23.159538	8.8599
1612.698975	23.171328	8.8806
1624.385254	23.183218	8.9041
1636.156250	23.194895	8.9310
1648.012451	23.206001	8.9601
1659.954590	23.216377	8.9897
1671.983398	23.226080	9.0181
1684.099243	23.235060	9.0448
1696.302856	23.242886	9.0713
1708.594971	23.249126	9.0999
1720.976196	23.253962	9.1326
1733.447144	23.258083	9.1700
1746.008423	23.262239	9.2107
1758.660645	23.266863	9.2510
1771.404663	23.272038	9.2884
1784.240967	23.277906	9.3233
1797.170288	23.284941	9.3584
1810.193359	23.293594	9.3957
1823.310791	23.303747	9.4337
1836.523193	23.314611	9.4693
1849.831421	23.325211	9.5002
1863.236084	23.335032	9.5268
1876.737793	23.344128	9.5521
1890.337524	23.352743	9.5799
1904.035645	23.360973	9.6123
1917.833008	23.368885	9.6478
1931.730469	23.376669	9.6842
1945.728638	23.384270	9.7203
1959.828125	23.391363	9.7566
1974.029907	23.398041	9.7944
1988.334473	23.404816	9.8350
2002.742798	23.412054	9.8787
2017.255493	23.419991	9.9250
2031.873291	23.428898	9.9714
2046.597168	23.439020	10.0143
2061.427734	23.450176	10.0511
2076.365479	23.461464	10.0819
2091.411865	23.471817	10.1101
2106.566895	23.480915	10.1398
2121.832031	23.488924	10.1733
2137.207764	23.495983	10.2092
2152.694824	23.502455	10.2454
2168.294189	23.509037	10.2815
2184.006592	23.516354	10.3193
2199.832764	23.524487	10.3601
2215.773682	23.532825	10.4036
2231.830078	23.540730	10.4482
2248.002686	23.548420	10.4921
2264.292725	23.556496	10.5346
2280.700684	23.564850	10.5763
2297.227539	23.572708	10.6185
2313.874268	23.579596	10.6622
2330.641602	23.585691	10.7075
2347.530273	23.591290	10.7542
2364.541504	23.596350	10.8024
2381.676025	23.600681	10.8517
2398.934570	23.604254	10.9016
2416.318359	23.607275	10.9523
2433.827881	23.610273	11.0050
2451.464355	23.613735	11.0606
2469.228760	23.617744	11.1180
2487.121826	23.622250	11.1754
2505.144531	23.627443	11.2319
2523.297852	23.633369	11.2879
2541.582764	23.639469	11.3450
2560.000000	23.644974	11.4051
2578.550781	23.649700	11.4691
2597.236084	23.654011	11.5357
2616.056641	23.658211	11.6029
2635.013672	23.662529	11.6693
2654.108154	23.667427	11.7350
2673.340820	23.673288	11.8011
2692.713135	23.679993	11.8681
2712.225586	23.687037	11.9355
2731.879395	23.694052	12.0037
2751.675781	23.701004	12.0740
2771.615479	23.708006	12.1472
2791.699707	23.715141	12.2220
2811.929688	23.722355	12.2963
2832.305908	23.729307	12.3683
2852.830078	23.735573	12.4389
2873.502930	23.741177	12.5110
2894.325439	23.746677	12.5861
2915.298828	23.752827	12.6631
2936.424316	23.759903	12.7391
2957.702881	23.767729	12.8123
2979.135742	23.776310	12.8835
3000.723633	23.785658	12.9556
3022.468262	23.795706	13.0307
3044.370117	23.806747	13.1079
3066.430908	23.819077	13.1845
3088.651611	23.832310	13.2595
3111.033203	23.845360	13.3349
3133.577148	23.857267	13.4131
3156.284180	23.867693	13.4944
3179.156006	23.876610	13.5768
3202.193359	23.884327	13.6583
3225.397949	23.891743	13.7392
3248.770508	23.899683	13.8212
3272.312500	23.908203	13.9048
3296.024902	23.917217	13.9897
3319.909180	23.927456	14.0750
3343.966797	23.939714	14.1591
3368.198486	23.953430	14.2396
3392.605713	23.966587	14.3151
3417.189941	23.977203	14.3889
3441.952393	23.985455	14.4676
3466.894287	23.993547	14.5534
3492.016846	24.003393	14.6427
3517.321289	24.015501	14.7317
3542.809326	24.029491	14.8189
3568.481934	24.044718	14.9042
3594.340576	24.060410	14.9880
3620.386719	24.075945	15.0711
3646.621582	24.091190	15.1549
3673.046387	24.106462	15.2412
3699.662842	24.122276	15.3304
3726.472168	24.139061	15.4205
3753.475586	24.156952	15.5093
3780.675049	24.175875	15.5961
3808.071289	24.195822	15.6823
3835.666016	24.216642	15.7691
3863.460938	24.237724	15.8561
3891.457275	24.258261	15.9430
3919.656250	24.277512	16.0315
3948.059814	24.294991	16.1243
3976.668945	24.310696	16.2215
4005.485596	24.325306	16.3204
4034.510986	24.340155	16.4174
4063.746582	24.356491	16.5112
4093.194336	24.374556	16.6033
4122.855469	24.393656	16.6962
4152.730957	24.412920	16.7917
4182.823730	24.431843	16.8894
4213.133789	24.450371	16.9875
4243.664062	24.468931	17.0850
4274.415527	24.487997	17.1820
4305.389648	24.507633	17.2793
4336.588379	24.527519	17.3766
4368.013184	24.547482	17.4732
4399.665527	24.567575	17.5696
4431.547363	24.587513	17.6673
4463.660156	24.606731	17.7670
4496.005371	24.625301	17.8683
4528.585449	24.644190	17.9696
4561.401367	24.664192	18.0687
4594.455078	24.685261	18.1643
4627.748535	24.706860	18.2577
4661.283203	24.728292	18.3517
4695.060547	24.748941	18.4489
4729.083008	24.768673	18.5495
4763.352051	24.787979	18.6520
4797.869141	24.807629	18.7543
4832.636719	24.828138	18.8550
4867.655762	24.849493	18.9539
4902.928711	24.871136	19.0516
4938.457520	24.892242	19.1493
4974.243652	24.912264	19.2484
5010.289062	24.931240	19.3496
5046.595703	24.949619	19.4533
5083.165527	24.968048	19.5594
5120.000000	24.987228	19.6668
5157.101562	25.007702	19.7739
5194.472168	25.029690	19.8796
5232.113281	25.052872	19.9843
5270.027344	25.076429	20.0895
5308.216309	25.099638	20.1966
5346.681641	25.122355	20.3062
5385.426270	25.144728	20.4170
5424.451172	25.166786	20.5280
5463.758789	25.188505	20.6394
5503.351562	25.210024	20.7521
5543.230957	25.231640	20.8666
5583.399414	25.253822	20.9832
5623.859375	25.277060	21.1023
5664.611816	25.301569	21.2243
5705.660156	25.327084	21.3490
5747.005859	25.353230	21.4752
5788.650879	25.380054	21.6021
5830.597656	25.407936	21.7290
5872.848633	25.437256	21.8552
5915.405762	25.468164	21.9805
5958.271484	25.500446	22.1052
6001.447266	25.533400	22.2298
6044.936523	25.565977	22.3549
6088.740234	25.597660	22.4812
6132.861816	25.628967	22.6084
6177.303223	25.660667	22.7358
6222.066406	25.693047	22.8635
6267.154297	25.725906	22.9928
6312.568359	25.758835	23.1243
6358.312012	25.791584	23.2572
6404.386719	25.824286	23.3915
6450.795898	25.857258	23.5277
6497.541016	25.890804	23.6656
6544.625000	25.925322	23.8037
6592.049805	25.961311	23.9415
6639.818359	25.999113	24.0791
6687.933594	26.038366	24.2153
6736.396973	26.077808	24.3492
6785.211426	26.116261	24.4812
6834.379883	26.153698	24.6129
6883.904785	26.190983	24.7457
6933.788574	26.228926	24.8797
6984.033691	26.267979	25.0145
7034.642578	26.308460	25.1491
7085.618652	26.350441	25.2834
7136.963867	26.393469	25.4170
7188.681152	26.436640	25.5511
7240.773438	26.479013	25.6876
7293.243164	26.520287	25.8276
7346.092773	26.561028	25.9700
7399.325684	26.602207	26.1131
7452.944336	26.644390	26.2564
7506.951172	26.687525	26.4008
7561.350098	26.731394	26.5467
7616.142578	26.776041	26.6931
7671.332031	26.821579	26.8393
7726.921875	26.867954	26.9852
7782.914551	26.915001	27.1307
7839.312500	26.962681	27.2753
7896.119629	27.011202	27.4191
7953.337891	27.060804	27.5633
8010.971191	27.111528	27.7095
8069.021973	27.163284	27.8581
8127.493164	27.215975	28.0077
8186.388672	27.269747	28.1564
8245.710938	27.325077	28.3039
8305.461914	27.382179	28.4507
8365.647461	27.440325	28.5972
8426.267578	27.498180	28.7438
8487.328125	27.554783	28.8913
8548.831055	27.610266	29.0412
8610.779297	27.665604	29.1939
8673.176758	27.721809	29.3486
8736.026367	27.779552	29.5035
8799.331055	27.839329	29.6568
8863.094727	27.901436	29.8075
8927.320312	27.965866	29.9550
8992.010742	28.031921	30.0981
9057.170898	28.097811	30.2348
9122.802734	28.160404	30.3652
9188.910156	28.216267	30.4942
9255.497070	28.264688	30.6311
9322.566406	28.309460	30.7828
9390.121094	28.356092	30.9470
9458.166016	28.407818	31.1164
9526.704102	28.464979	31.2859
9595.738281	28.526735	31.4535
9665.273438	28.592182	31.6185
9735.311523	28.660492	31.7800
9805.857422	28.730621	31.9385
9876.915039	28.801334	32.0954
9948.487305	28.871752	32.2532
10020.578125	28.941833	32.4137
10093.191406	29.012255	32.5767
10166.331055	29.083891	32.7402
10240.000000	29.157352	32.9021
10314.203125	29.232756	33.0618
10388.944336	29.309774	33.2197
10464.226562	29.387991	33.3769
10540.054688	29.467205	33.5342
10616.432617	29.547516	33.6909
10693.363281	29.629259	33.8453
10770.852539	29.712627	33.9966
10848.902344	29.797243	34.1452
10927.517578	29.882381	34.2922
11006.703125	29.967464	34.4388
11086.461914	30.052277	34.5853
11166.798828	30.136850	34.7316
11247.718750	30.221146	34.8782
11329.223633	30.304970	35.0257
11411.320312	30.388466	35.1749
11494.011719	30.472609	35.3259
11577.301758	30.558830	35.4782
11661.195312	30.647928	35.6303
11745.697266	30.739378	35.7799
11830.811523	30.831551	35.9257
11916.542969	30.922403	36.0684
12002.894531	31.010174	36.2106
12089.873047	31.093784	36.3539
12177.480469	31.172892	36.4983
12265.723633	31.248158	36.6449
12354.606445	31.321312	36.7965
12444.132812	31.394505	36.9557
12534.308594	31.469807	37.1223
12625.136719	31.548916	37.2946
12716.624023	31.632942	37.4699
12808.773438	31.722301	37.6452
12901.591797	31.816835	37.8185
12995.082031	31.915829	37.9886
13089.250000	32.017990	38.1562
13184.099609	32.121700	38.3228
13279.636719	32.225586	38.4890
13375.867188	32.328938	38.6545
13472.793945	32.431641	38.8191
13570.422852	32.533745	38.9841
13668.759766	32.635597	39.1516
13767.809570	32.738075	39.3223
13867.577148	32.842327	39.4951
13968.067383	32.949062	39.6671
14069.285156	33.058144	39.8356
14171.237305	33.168648	40.0006
14273.927734	33.279255	40.1656
14377.362305	33.389030	40.3339
14481.546875	33.498238	40.5061
14586.486328	33.608341	40.6806
14692.185547	33.721134	40.8540
14798.651367	33.837784	41.0237
14905.888672	33.958538	41.1883
15013.902344	34.082653	41.3486
15122.700195	34.208736	41.5068
15232.285156	34.335518	41.6651
15342.664062	34.462246	41.8245
15453.843750	34.588825	41.9855
15565.829102	34.715725	42.1479
15678.625000	34.843678	42.3106
15792.239258	34.973064	42.4728
15906.675781	35.103611	42.6342
16021.942383	35.234886	42.7953
16138.043945	35.367069	42.9571
16254.986328	35.500828	43.1199
16372.777344	35.636597	43.2835
16491.421875	35.774155	43.4476
16610.923828	35.913200	43.6111
16731.294922	36.053684	43.7722
16852.535156	36.195389	43.9294
16974.656250	36.338036	44.0824
17097.662109	36.481892	44.2324
17221.558594	36.627419	44.3810
17346.353516	36.774574	44.5294
17472.052734	36.922802	44.6780
17598.662109	37.071827	44.8266
17726.189453	37.222027	44.9752
17854.640625	37.373898	45.1239
17984.021484	37.527519	45.2724
18114.341797	37.682423	45.4201
18245.605469	37.837769	45.5675
18377.820312	37.993031	45.7158
18510.994141	38.148605	45.8653
18645.132812	38.305370	46.0155
18780.242188	38.463879	46.1662
18916.332031	38.624245	46.3172
19053.408203	38.786438	46.4678
19191.476562	38.950218	46.6174
19330.546875	39.114754	46.7651
19470.623047	39.277866	46.9101
19611.714844	39.434578	47.0499
19753.830078	39.574322	47.1757
19896.974609	39.679047	47.2705
