* Measurement data measured by REW V5.31.1
* Source: EXCL: Microphone (USB Audio CODEC ), no input selected, R, volume: no control
* Format: 256k Log Swept Sine, 1 sweep at 0.0 dBFS, at 48000 Hz
* Dated: 21:09:24 16/07/2024
* Sense Resistor: 100.0
* Lead resistance: 0.000
* Input resistance: 20000.000
* Calibration factor: 1.0002
* Note: 
* Measurement: Woofer Impedance
* Smoothing: None
* Frequency Step: 1/96 octave
* Start Frequency: 20.145 Hz
*
* Freq(Hz)	Z(Ohms)	Phase(degrees)
20.144928	7.472016	18.0360
20.290907	7.482963	18.1467
20.437943	7.493990	18.2894
20.586044	7.499064	18.3744
20.735220	7.492740	18.4067
20.885475	7.484763	18.4671
21.036821	7.476541	18.6011
21.189262	7.468668	18.7561
21.342808	7.465057	18.8773
21.497467	7.464689	18.9789
21.653246	7.463720	19.0805
21.810154	7.461148	19.1833
21.968201	7.459897	19.2859
22.127390	7.461855	19.3886
22.287735	7.465745	19.4915
22.449242	7.470543	19.5987
22.611917	7.476485	19.7072
22.775772	7.483515	19.7861
22.940815	7.492262	19.8276
23.107054	7.497734	19.8953
23.274498	7.496346	20.0163
23.443153	7.496962	20.1425
23.613033	7.507213	20.2469
23.784142	7.518486	20.3478
23.956491	7.521172	20.4551
24.130091	7.521654	20.5646
24.304947	7.529710	20.6772
24.481071	7.540759	20.7866
24.658470	7.544528	20.8581
24.837156	7.543764	20.9096
25.017136	7.545022	21.0262
25.198421	7.547791	21.1877
25.381020	7.554800	21.2962
25.564941	7.565047	21.3687
25.750195	7.570223	21.4847
25.936790	7.572560	21.6314
26.124741	7.585655	21.7585
26.314051	7.605253	21.8724
26.504732	7.613739	21.9719
26.696796	7.617329	22.0730
26.890253	7.630221	22.2441
27.085112	7.647048	22.4363
27.281382	7.662198	22.5578
27.479073	7.676857	22.6827
27.678198	7.688107	22.9001
27.878765	7.708361	23.0633
28.080786	7.752003	23.0897
28.284271	7.754695	23.0965
28.489231	7.705897	23.1020
28.695675	7.705638	23.6437
28.903616	7.751728	24.4701
29.113064	7.868673	24.6678
29.324028	7.977046	24.4282
29.536524	7.988898	23.5800
29.750557	7.958572	23.2943
29.966141	7.895557	23.8354
30.183289	7.882925	23.8275
30.402010	7.891759	23.8043
30.622314	7.854553	24.9842
30.844217	7.889292	25.6297
31.067726	8.031681	25.2016
31.292856	8.016497	25.4723
31.519617	7.963521	25.9452
31.748020	8.061569	25.9316
31.978081	8.079535	26.0347
32.209808	8.019506	26.3098
32.443211	8.084316	26.6678
32.678310	8.132866	26.8074
32.915108	8.113248	26.6138
33.153625	8.126471	27.0797
33.393871	8.160119	27.4804
33.635857	8.210249	27.2877
33.879597	8.210957	27.6038
34.125103	8.219483	28.0626
34.372387	8.286221	28.3638
34.621464	8.341327	28.7063
34.872345	8.394777	28.9744
35.125042	8.451053	29.0970
35.379574	8.494514	29.2882
35.635948	8.523984	29.4785
35.894180	8.545126	29.6862
36.154285	8.587846	30.1543
36.416275	8.641893	30.3130
36.680161	8.687391	30.3702
36.945961	8.697074	30.7743
37.213688	8.753209	30.8845
37.483353	8.799463	31.1609
37.754974	8.834952	31.5904
38.028561	8.928163	31.5638
38.304131	8.961049	31.8812
38.581699	9.010201	32.2145
38.861279	9.098818	32.4730
39.142883	9.172015	32.9254
39.426529	9.272014	33.0284
39.712231	9.335443	33.2159
40.000000	9.383175	33.5512
40.289856	9.468536	33.8924
40.581814	9.515207	34.2427
40.875885	9.598721	34.6909
41.172089	9.698656	35.0904
41.470440	9.794929	35.3155
41.770950	9.880703	35.4115
42.073643	9.965059	35.9736
42.378525	10.098320	35.9843
42.685616	10.203750	36.3439
42.994934	10.324646	36.6007
43.306492	10.463839	36.7755
43.620308	10.584769	37.4682
43.936401	10.833406	37.4809
44.254780	10.918359	37.6123
44.575470	11.073587	37.9776
44.898483	11.213028	38.3111
45.223835	11.379833	38.6740
45.551544	11.567815	38.9610
45.881630	11.746059	39.1789
46.214108	11.968120	39.5382
46.548996	12.238144	39.6051
46.886307	12.444266	39.5929
47.226067	12.710855	39.8985
47.568283	12.956229	39.8951
47.912983	13.252544	40.3209
48.260181	13.554743	40.2495
48.609894	13.876599	40.5833
48.962143	14.235436	40.3845
49.316940	14.558380	40.4273
49.674313	14.930273	40.4019
50.034271	15.379742	40.4002
50.396843	15.841862	40.1687
50.762039	16.371431	39.9964
51.129883	16.928432	39.5322
51.500389	17.473419	39.0688
51.873581	18.083622	38.6291
52.249481	18.776924	37.8522
52.628101	19.412907	36.8844
53.009464	20.134197	36.0177
53.393593	20.965439	34.8087
53.780506	21.796291	33.3766
54.170223	22.677883	31.8162
54.562763	23.635250	30.2502
54.958145	24.738628	27.9204
55.356396	25.581182	25.5919
55.757530	26.648245	22.7844
56.161572	27.378426	19.6782
56.568542	28.155186	16.5520
56.978462	28.869320	13.1631
57.391350	29.500298	9.5547
57.807232	29.982334	5.4659
58.226128	30.075432	1.5155
58.648056	30.026043	-2.5757
59.073048	29.691057	-6.5598
59.501114	29.101961	-10.4871
59.932281	28.353779	-14.1733
60.366577	27.576014	-17.5997
60.804020	26.517073	-20.9839
61.244629	25.582500	-23.6314
61.688435	24.520714	-26.1980
62.135452	23.495226	-28.3431
62.585712	22.501163	-30.2693
63.039234	21.480577	-31.8091
63.496040	20.599020	-33.3559
63.956161	19.700695	-34.5869
64.419617	18.885870	-35.5616
64.886421	18.137823	-36.3997
65.356621	17.446560	-36.9702
65.830215	16.783356	-37.4434
66.307251	16.179188	-37.8088
66.787743	15.590872	-38.0851
67.271713	15.049706	-38.2657
67.759193	14.597095	-38.3586
68.250206	14.111898	-38.4685
68.744774	13.707017	-38.3354
69.242928	13.335078	-38.1234
69.744690	12.966997	-38.0277
70.250084	12.636441	-37.8394
70.759148	12.273180	-37.6180
71.271896	12.015505	-37.2968
71.788361	11.730106	-36.8270
72.308571	11.525251	-36.8057
72.832550	11.298165	-36.3944
73.360321	11.042453	-36.0969
73.891922	10.840763	-35.5618
74.427376	10.663535	-35.0493
74.966705	10.424450	-35.0567
75.509949	10.290197	-34.1345
76.057121	10.114530	-33.7952
76.608261	9.973724	-33.4653
77.163399	9.810277	-32.9566
77.722557	9.719031	-32.5294
78.285767	9.559801	-32.2954
78.853058	9.386016	-31.5805
79.424461	9.299429	-31.0058
80.000000	9.197161	-31.2548
80.579712	9.035178	-30.4438
81.163628	8.938244	-30.1175
81.751770	8.837600	-29.3547
82.344177	8.739060	-28.9394
82.940880	8.685766	-28.6671
83.541901	8.610639	-28.0845
84.147285	8.522226	-27.6374
84.757050	8.472344	-27.2763
85.371231	8.393706	-26.8226
85.989868	8.336404	-26.4161
86.612984	8.260467	-25.8233
87.240616	8.194582	-25.4820
87.872803	8.149030	-25.0218
88.509560	8.097996	-24.5001
89.150940	8.060808	-24.2490
89.796967	8.008032	-23.8256
90.447670	7.959936	-23.3394
91.103088	7.922055	-23.0599
91.763260	7.872823	-22.7406
92.428215	7.832128	-22.3418
93.097992	7.790014	-21.9516
93.772614	7.759870	-21.7600
94.452133	7.738230	-21.1259
95.136566	7.673354	-20.8733
95.825966	7.651534	-20.4280
96.520363	7.599713	-20.1086
97.219788	7.564932	-19.6885
97.924286	7.543585	-19.3234
98.633881	7.506454	-18.9787
99.348625	7.515610	-19.0207
100.068542	7.353059	-18.9552
100.793686	7.409162	-18.2772
101.524078	7.415205	-17.7735
102.259766	7.400099	-17.3931
103.000778	7.381811	-16.9554
103.747162	7.354897	-16.7342
104.498962	7.327106	-16.4378
105.256203	7.323235	-15.9747
106.018929	7.319780	-15.8430
106.787186	7.292797	-15.3285
107.561012	7.282110	-15.3610
108.340446	7.261867	-15.0113
109.125526	7.230979	-15.0230
109.916290	7.209036	-14.6585
110.712791	7.211239	-14.1688
111.515060	7.199194	-13.9777
112.323143	7.173928	-13.6964
113.137085	7.159615	-13.3220
113.956924	7.144717	-13.1738
114.782700	7.131247	-12.8338
115.614464	7.111848	-12.5654
116.452255	7.110978	-12.2593
117.296112	7.097610	-12.1476
118.146095	7.083370	-11.7769
119.002228	7.080415	-11.4820
119.864563	7.077783	-11.2775
120.733154	7.055490	-11.0928
121.608040	7.057057	-10.7682
122.489258	7.040865	-10.5472
123.376869	7.021864	-10.3418
124.270905	7.015863	-10.1569
125.171425	7.012181	-9.9397
126.078468	7.013957	-9.6889
126.992081	7.019181	-9.4768
127.912323	7.007533	-9.2614
128.839233	7.000891	-8.9830
129.772842	7.002600	-8.7663
130.713242	6.986960	-8.5445
131.660431	6.973390	-8.3002
132.614502	6.962056	-8.1855
133.575485	6.947809	-7.9631
134.543427	6.952802	-7.6762
135.518387	6.969229	-7.4554
136.500412	6.955832	-7.3481
137.489548	6.938490	-7.2153
138.485855	6.939077	-6.9666
139.489380	6.943883	-6.7093
140.500168	6.943736	-6.4396
141.518295	6.923819	-6.4127
142.543793	6.924892	-6.1734
143.576721	6.910912	-6.0340
144.617142	6.913639	-5.8034
145.665100	6.913594	-5.5712
146.720642	6.907467	-5.3862
147.783844	6.901517	-5.0939
148.854752	6.898443	-5.0032
149.933411	6.889493	-4.8149
151.019897	6.898190	-4.6829
152.114243	6.891856	-4.4848
153.216522	6.894020	-4.2634
154.326797	6.888350	-4.0965
155.445114	6.890388	-3.9743
156.571533	6.886394	-3.7553
157.706116	6.881882	-3.5316
158.848923	6.884789	-3.3449
160.000000	6.888339	-3.1655
161.159424	6.893643	-2.9773
162.327255	6.886834	-2.8185
163.503540	6.889203	-2.7811
164.688354	6.888404	-2.5426
165.881760	6.888088	-2.4709
167.083801	6.876732	-2.2219
168.294571	6.879169	-2.0536
169.514099	6.877119	-1.9372
170.742462	6.880449	-1.7094
171.979736	6.881467	-1.5534
173.225967	6.885372	-1.4001
174.481232	6.882511	-1.2275
175.745605	6.878240	-1.0924
177.019119	6.879456	-0.9537
178.301880	6.879265	-0.7255
179.593933	6.878733	-0.5946
180.895340	6.880366	-0.4059
182.206177	6.883214	-0.2134
183.526520	6.880858	0.0048
184.856430	6.885767	0.1294
186.195984	6.889047	0.2998
187.545227	6.886925	0.4392
188.904266	6.894579	0.6310
190.273132	6.895195	0.8287
191.651932	6.893944	1.0237
193.040726	6.895461	1.1681
194.439575	6.904530	1.3280
195.848572	6.910493	1.6147
197.267761	6.921917	1.7861
198.697250	6.945009	1.9627
200.137085	6.978186	2.1940
201.587372	7.026449	2.0172
203.048157	7.003643	1.5418
204.519531	6.946575	1.6976
206.001556	6.934328	2.0207
207.494324	6.955274	2.2003
208.997925	6.941699	2.1822
210.512405	6.931101	2.3158
212.037857	6.924842	2.6136
213.574371	6.923712	2.8648
215.122025	6.925689	3.0732
216.680893	6.924941	3.3097
218.251053	6.926603	3.5705
219.832581	6.934606	3.7765
221.425583	6.939542	3.9580
223.030121	6.943892	4.2036
224.646286	6.945607	4.4134
226.274170	6.963152	4.6555
227.913849	6.973720	4.9163
229.565399	6.975266	5.1467
231.228928	6.999047	5.4774
232.904510	7.023646	5.8133
234.592224	7.050761	6.1968
236.292191	7.113404	6.7011
238.004456	7.209625	7.2113
239.729126	7.399339	7.3789
241.466309	7.646030	6.1628
243.216080	7.659040	3.2663
244.978516	7.400808	2.0145
246.753738	7.208519	2.2761
248.541809	7.122216	2.8416
250.342850	7.061832	3.2683
252.156937	7.040667	3.8074
253.984161	7.016211	4.1531
255.824646	7.014268	4.5032
257.678467	7.011984	4.7856
259.545685	7.006899	5.0461
261.426483	7.010173	5.2869
263.320862	7.006206	5.4472
265.229004	7.005489	5.7069
267.150970	7.010149	5.8849
269.086853	7.010907	6.0596
271.036774	7.018019	6.2831
273.000824	7.027464	6.4415
274.979095	7.024858	6.6340
276.971710	7.029079	6.7874
278.978760	7.033542	6.9489
281.000336	7.033754	7.1230
283.036591	7.042061	7.2613
285.087585	7.050550	7.4059
287.153442	7.046489	7.5278
289.234283	7.059911	7.7161
291.330200	7.061114	7.8685
293.441284	7.063800	8.0299
295.567688	7.073564	8.1726
297.709503	7.077466	8.3210
299.866821	7.088080	8.5278
302.039795	7.086524	8.6198
304.228485	7.092801	8.7598
306.433044	7.098455	8.9319
308.653595	7.105830	9.1037
310.890228	7.117390	9.2114
313.143066	7.115119	9.4339
315.412231	7.133821	9.5694
317.697845	7.140973	9.6807
320.000000	7.149615	9.7927
322.318848	7.146406	9.9199
324.654510	7.158812	10.1078
327.007080	7.168990	10.2676
329.376709	7.187497	10.4020
331.763519	7.190077	10.5588
334.167603	7.204516	10.6629
336.589142	7.222104	10.6990
339.028198	7.231607	10.7688
341.484924	7.227345	10.8616
343.959473	7.237350	10.9740
346.451935	7.233892	11.0655
348.962463	7.240652	11.2360
351.491211	7.253163	11.3222
354.038239	7.262330	11.4905
356.603760	7.264276	11.6448
359.187866	7.271833	11.7264
361.790680	7.281495	11.8405
364.412354	7.291764	11.9877
367.053040	7.302464	12.0769
369.712860	7.306155	12.1882
372.391968	7.319535	12.2517
375.090454	7.321859	12.3381
377.808533	7.329803	12.4677
380.546265	7.335248	12.6016
383.303864	7.339235	12.6980
386.081451	7.342390	12.8560
388.879150	7.348784	12.9814
391.697144	7.354267	13.0945
394.535522	7.359856	13.2024
397.394501	7.368425	13.3218
400.274170	7.373246	13.4365
403.174744	7.374725	13.5853
406.096313	7.383567	13.7431
409.039062	7.391988	13.8620
412.003113	7.392677	13.9565
414.988647	7.402413	14.1285
417.995850	7.408346	14.2800
421.024811	7.416728	14.4471
424.075714	7.423651	14.5597
427.148743	7.427054	14.6692
430.244049	7.439764	14.8534
433.361786	7.447917	14.9971
436.502106	7.457214	15.1363
439.665161	7.469393	15.2897
442.851166	7.479383	15.3894
446.060242	7.481448	15.5434
449.292572	7.494894	15.7201
452.548340	7.497737	15.8774
455.827698	7.512799	16.0075
459.130798	7.525905	16.1710
462.457855	7.536598	16.3071
465.809021	7.549557	16.4377
469.184448	7.557456	16.5728
472.584381	7.569283	16.7067
476.008911	7.579141	16.8609
479.458252	7.591426	16.9979
482.932617	7.602707	17.1457
486.432159	7.602973	17.2269
489.957031	7.624462	17.4282
493.507477	7.634034	17.5705
497.083618	7.647022	17.7329
500.685699	7.662461	17.8862
504.313873	7.671221	18.0204
507.968323	7.684421	18.1965
511.649292	7.697924	18.3051
515.356934	7.710351	18.4996
519.091370	7.726743	18.5933
522.852966	7.738413	18.7544
526.641724	7.751780	18.9105
530.458008	7.762951	19.0660
534.301941	7.782382	19.2046
538.173706	7.797746	19.3546
542.073547	7.809357	19.5045
546.001648	7.827499	19.6227
549.958191	7.844594	19.7924
553.943420	7.859449	19.9191
557.957520	7.871383	20.0860
562.000671	7.884526	20.2389
566.073181	7.904099	20.4069
570.175171	7.919349	20.5605
574.306885	7.940886	20.7357
578.468567	7.956569	20.8788
582.660400	7.977552	21.0266
586.882568	7.995742	21.1637
591.135376	8.013554	21.3289
595.419006	8.032658	21.4509
599.733643	8.054132	21.6231
604.079590	8.072737	21.7680
608.456970	8.097233	21.9555
612.866089	8.123894	22.0920
617.307190	8.144484	22.2077
621.780457	8.164732	22.3817
626.286133	8.191742	22.5418
630.824463	8.220087	22.7100
635.395691	8.244822	22.8615
640.000000	8.276682	22.9884
644.637695	8.304503	23.1205
649.309021	8.333004	23.2778
654.014160	8.362175	23.4480
658.753418	8.396065	23.5497
663.527039	8.433379	23.6670
668.335205	8.474144	23.8175
673.178284	8.502797	23.8959
678.056396	8.545001	23.9999
682.969849	8.589344	24.0872
687.918945	8.637817	24.1648
692.903870	8.686507	24.1670
697.924927	8.742469	24.1448
702.982422	8.788689	23.9694
708.076477	8.815868	23.7759
713.207520	8.818840	23.5996
718.375732	8.819444	23.6512
723.581360	8.835970	23.7616
728.824707	8.872212	23.8790
734.106079	8.910434	23.8767
739.425720	8.949834	23.8299
744.783936	8.991014	23.7155
750.180908	9.019123	23.5187
755.617065	9.024925	23.3235
761.092529	9.023210	23.2560
766.607727	9.033365	23.2743
772.162903	9.050550	23.2347
777.758301	9.066989	23.1830
783.394287	9.081837	23.0839
789.071045	9.092967	22.9983
794.789001	9.097523	22.8912
800.548340	9.101261	22.8251
806.349487	9.096877	22.7385
812.192627	9.087784	22.6625
818.078125	9.079349	22.6121
824.006226	9.063684	22.5645
829.977295	9.042787	22.5278
835.991699	9.020617	22.5708
842.049622	8.998953	22.6506
848.151428	8.978629	22.7837
854.297485	8.958818	22.9191
860.488098	8.951883	23.1560
866.723572	8.948229	23.3431
873.004211	8.952307	23.5206
879.330322	8.955015	23.6879
885.702332	8.951144	23.8043
892.120483	8.945241	23.9653
898.585144	8.943631	24.1255
905.096680	8.933298	24.3084
911.655396	8.932295	24.5647
918.261597	8.930085	24.8104
924.915710	8.935476	25.0617
931.618042	8.942338	25.3734
938.368896	8.952510	25.6358
945.168762	8.967480	25.9090
952.017822	8.987455	26.1827
958.916504	9.014906	26.4765
965.865234	9.043128	26.7534
972.864319	9.082251	27.0135
979.914062	9.124584	27.2273
987.014954	9.172872	27.4167
994.167236	9.235048	27.5267
1001.371399	9.282347	27.4617
1008.627747	9.311326	27.2752
1015.936646	9.304074	27.1383
1023.298584	9.277400	27.1917
1030.713867	9.261934	27.4509
1038.182739	9.265701	27.7076
1045.705933	9.281713	27.9712
1053.283447	9.299395	28.2368
1060.916016	9.322528	28.4098
1068.603882	9.336971	28.6563
1076.347412	9.355464	28.8794
1084.147095	9.387697	29.2190
1092.003296	9.432233	29.4939
1099.916382	9.470675	29.7257
1107.886841	9.518106	29.9284
1115.915039	9.569627	30.0703
1124.001343	9.621773	30.1446
1132.146362	9.661018	30.2185
1140.350342	9.692150	30.2997
1148.613770	9.730289	30.2948
1156.937134	9.758671	30.4058
1165.320801	9.782596	30.5096
1173.765137	9.817296	30.6119
1182.270752	9.847188	30.7423
1190.838013	9.880566	30.8272
1199.467285	9.913809	30.9550
1208.159180	9.955240	31.0795
1216.913940	9.982628	31.1629
1225.732178	10.022044	31.2488
1234.614380	10.060488	31.3772
1243.560913	10.101027	31.4027
1252.572266	10.135303	31.4719
1261.648926	10.169428	31.5685
1270.791382	10.210525	31.6604
1280.000000	10.255422	31.6385
1289.275391	10.287727	31.6917
1298.618042	10.329425	31.7118
1308.028320	10.368342	31.6750
1317.506836	10.400094	31.6418
1327.054077	10.419496	31.6686
1336.670410	10.449127	31.6721
1346.356567	10.485100	31.6635
1356.112793	10.508992	31.5565
1365.939697	10.519889	31.4060
1375.837891	10.503962	31.3322
1385.807739	10.483189	31.3792
1395.849854	10.470351	31.5169
1405.964844	10.457129	31.7382
1416.152954	10.468929	31.9931
1426.415039	10.486109	32.2401
1436.751465	10.521126	32.4300
1447.162720	10.555161	32.5718
1457.649414	10.587222	32.7009
1468.212158	10.617433	32.7482
1478.851440	10.635244	32.7921
1489.567871	10.651733	32.9068
1500.361816	10.658608	33.0345
1511.234131	10.667684	33.1720
1522.185059	10.682348	33.3545
1533.215454	10.700891	33.5444
1544.325806	10.723948	33.7543
1555.516602	10.751884	33.9186
1566.788574	10.782831	34.0913
1578.142090	10.805931	34.2695
1589.578003	10.835522	34.4495
1601.096680	10.868908	34.6352
1612.698975	10.902168	34.8302
1624.385254	10.938410	35.0379
1636.156250	10.970398	35.2066
1648.012451	11.012642	35.3678
1659.954590	11.053269	35.5234
1671.983398	11.089154	35.6597
1684.099243	11.128903	35.8404
1696.302856	11.167392	35.9758
1708.594971	11.207081	36.0794
1720.976196	11.248426	36.2387
1733.447144	11.286793	36.3860
1746.008423	11.325353	36.5242
1758.660645	11.365160	36.6811
1771.404663	11.405985	36.8133
1784.240967	11.449314	36.9501
1797.170288	11.494904	37.0880
1810.193359	11.542724	37.1833
1823.310791	11.583883	37.3149
1836.523193	11.623291	37.4336
1849.831421	11.670208	37.5436
1863.236084	11.715737	37.6554
1876.737793	11.755015	37.7529
1890.337524	11.801746	37.8942
1904.035645	11.845345	37.9896
1917.833008	11.887111	38.0881
1931.730469	11.937689	38.2239
1945.728638	11.977423	38.2855
1959.828125	12.019442	38.4118
1974.029907	12.064082	38.5382
1988.334473	12.108082	38.6288
2002.742798	12.151502	38.7476
2017.255493	12.198461	38.8804
2031.873291	12.245303	38.9817
2046.597168	12.294874	39.1022
2061.427734	12.344693	39.1835
2076.365479	12.389169	39.2877
2091.411865	12.440161	39.3872
2106.566895	12.484612	39.4893
2121.832031	12.533623	39.6033
2137.207764	12.578656	39.7241
2152.694824	12.630011	39.7914
2168.294189	12.677909	39.9106
2184.006592	12.725139	39.9928
2199.832764	12.766763	40.1054
2215.773682	12.826388	40.1979
2231.830078	12.875248	40.2775
2248.002686	12.923797	40.3726
2264.292725	12.977875	40.4651
2280.700684	13.031525	40.5643
2297.227539	13.085468	40.6483
2313.874268	13.129926	40.7466
2330.641602	13.185222	40.8460
2347.530273	13.232285	40.9415
2364.541504	13.289948	41.0349
2381.676025	13.336468	41.0989
2398.934570	13.393339	41.2010
2416.318359	13.445453	41.3126
2433.827881	13.505445	41.3625
2451.464355	13.553528	41.4813
2469.228760	13.614676	41.5384
2487.121826	13.671839	41.6177
2505.144531	13.726048	41.7179
2523.297852	13.788469	41.8016
2541.582764	13.843411	41.8691
2560.000000	13.894949	41.9279
2578.550781	13.956770	42.0259
2597.236084	14.016605	42.0849
2616.056641	14.073634	42.1558
2635.013672	14.123224	42.2226
2654.108154	14.182777	42.3032
2673.340820	14.246178	42.3888
2692.713135	14.305120	42.4366
2712.225586	14.363357	42.4834
2731.879395	14.420953	42.5232
2751.675781	14.473786	42.6057
2771.615479	14.538822	42.6768
2791.699707	14.595056	42.7723
2811.929688	14.647617	42.8281
2832.305908	14.720463	42.8788
2852.830078	14.783367	42.9667
2873.502930	14.838953	43.0033
2894.325439	14.904248	43.0750
2915.298828	14.966484	43.1138
2936.424316	15.026131	43.1645
2957.702881	15.084921	43.1883
2979.135742	15.146008	43.2190
3000.723633	15.202395	43.2850
3022.468262	15.258366	43.3675
3044.370117	15.316056	43.3836
3066.430908	15.380869	43.4514
3088.651611	15.443425	43.4982
3111.033203	15.488244	43.5447
3133.577148	15.538760	43.6146
3156.284180	15.610239	43.6479
3179.156006	15.671308	43.7281
3202.193359	15.728727	43.7628
3225.397949	15.789007	43.7941
3248.770508	15.849599	43.8519
3272.312500	15.901212	43.9232
3296.024902	15.951548	43.9750
3319.909180	16.013905	44.0452
3343.966797	16.073528	44.1068
3368.198486	16.123659	44.2011
3392.605713	16.186140	44.2629
3417.189941	16.253174	44.3435
3441.952393	16.320318	44.4288
3466.894287	16.386036	44.4858
3492.016846	16.449436	44.5906
3517.321289	16.512966	44.6604
3542.809326	16.577393	44.7187
3568.481934	16.636623	44.7724
3594.340576	16.712965	44.8453
3620.386719	16.782337	44.8948
3646.621582	16.851295	44.9819
3673.046387	16.920073	45.0457
3699.662842	17.000341	45.0851
3726.472168	17.066895	45.1402
3753.475586	17.139818	45.2052
3780.675049	17.213192	45.2743
3808.071289	17.284611	45.3304
3835.666016	17.356188	45.3711
3863.460938	17.416315	45.4147
3891.457275	17.487295	45.4985
3919.656250	17.570684	45.5249
3948.059814	17.642899	45.5979
3976.668945	17.711304	45.6300
4005.485596	17.788610	45.6886
4034.510986	17.856834	45.7442
4063.746582	17.930681	45.7844
4093.194336	18.004173	45.8302
4122.855469	18.078110	45.8450
4152.730957	18.144909	45.9296
4182.823730	18.230833	45.9597
4213.133789	18.296984	46.0088
4243.664062	18.372803	46.0763
4274.415527	18.442507	46.1090
4305.389648	18.514288	46.1672
4336.588379	18.596405	46.2266
4368.013184	18.671124	46.2750
4399.665527	18.754354	46.3458
4431.547363	18.824898	46.3546
4463.660156	18.901497	46.4284
4496.005371	18.975321	46.4786
4528.585449	19.054136	46.5176
4561.401367	19.130796	46.5636
4594.455078	19.220242	46.5985
4627.748535	19.289049	46.6603
4661.283203	19.372017	46.6937
4695.060547	19.450392	46.7277
4729.083008	19.527292	46.8137
4763.352051	19.613188	46.8279
4797.869141	19.698065	46.8794
4832.636719	19.771358	46.8988
4867.655762	19.862535	46.9534
4902.928711	19.933201	47.0067
4938.457520	20.019325	47.0770
4974.243652	20.115921	47.0844
5010.289062	20.191740	47.1034
5046.595703	20.277863	47.1492
5083.165527	20.346037	47.1880
5120.000000	20.444221	47.2382
5157.101562	20.517361	47.2729
5194.472168	20.609426	47.3086
5232.113281	20.689665	47.3693
5270.027344	20.773697	47.4172
5308.216309	20.855946	47.4052
5346.681641	20.950590	47.4775
5385.426270	21.029753	47.5376
5424.451172	21.121868	47.5843
5463.758789	21.209507	47.6165
5503.351562	21.284311	47.6259
5543.230957	21.381182	47.6749
5583.399414	21.472113	47.7212
5623.859375	21.555538	47.7598
5664.611816	21.645416	47.8033
5705.660156	21.730944	47.8348
5747.005859	21.818501	47.8399
5788.650879	21.926228	47.9220
5830.597656	22.012558	47.9226
5872.848633	22.105719	47.9684
5915.405762	22.185116	47.9825
5958.271484	22.296032	48.0274
6001.447266	22.380407	48.0289
6044.936523	22.469351	48.1225
6088.740234	22.565990	48.1276
6132.861816	22.656445	48.1415
6177.303223	22.745838	48.1837
6222.066406	22.853399	48.2360
6267.154297	22.940075	48.2363
6312.568359	23.032764	48.2832
6358.312012	23.120148	48.3177
6404.386719	23.228249	48.3581
6450.795898	23.304880	48.3983
6497.541016	23.414379	48.4054
6544.625000	23.510288	48.4504
6592.049805	23.613749	48.4599
6639.818359	23.708714	48.5280
6687.933594	23.806683	48.5133
6736.396973	23.886395	48.5239
6785.211426	23.995777	48.5654
6834.379883	24.091944	48.6063
6883.904785	24.189514	48.6322
6933.788574	24.285702	48.6608
6984.033691	24.391169	48.6985
7034.642578	24.475212	48.7163
7085.618652	24.576099	48.7564
7136.963867	24.675350	48.7824
7188.681152	24.769409	48.8137
7240.773438	24.878370	48.8378
7293.243164	24.958000	48.8599
7346.092773	25.075493	48.8997
7399.325684	25.176420	48.9552
7452.944336	25.272280	48.9668
7506.951172	25.364700	48.9956
7561.350098	25.487055	49.0550
7616.142578	25.595404	49.0631
7671.332031	25.681942	49.1390
7726.921875	25.801208	49.1514
7782.914551	25.902136	49.1824
7839.312500	25.998501	49.1879
7896.119629	26.103912	49.2123
7953.337891	26.216091	49.2410
8010.971191	26.313290	49.3043
8069.021973	26.440029	49.3359
8127.493164	26.527191	49.3761
8186.388672	26.647356	49.3874
8245.710938	26.752731	49.4128
8305.461914	26.849930	49.4502
8365.647461	26.960207	49.4729
8426.267578	27.076141	49.4833
8487.328125	27.191801	49.5312
8548.831055	27.298910	49.5615
8610.779297	27.399345	49.6237
8673.176758	27.498966	49.6356
8736.026367	27.620972	49.6537
8799.331055	27.733578	49.7373
8863.094727	27.854490	49.7175
8927.320312	27.962069	49.7519
8992.010742	28.062737	49.7766
9057.170898	28.201181	49.8077
9122.802734	28.306623	49.8326
9188.910156	28.417990	49.8931
9255.497070	28.545288	49.9148
9322.566406	28.642004	49.9489
9390.121094	28.763454	49.9941
9458.166016	28.864742	49.9983
9526.704102	29.004402	50.0443
9595.738281	29.117235	50.0712
9665.273438	29.220013	50.0784
9735.311523	29.361799	50.1073
9805.857422	29.472435	50.1492
9876.915039	29.588692	50.1866
9948.487305	29.707649	50.2104
10020.578125	29.819794	50.2351
10093.191406	29.955717	50.2589
10166.331055	30.067471	50.2983
10240.000000	30.182312	50.3137
10314.203125	30.325928	50.3685
10388.944336	30.437580	50.3954
10464.226562	30.551815	50.4312
10540.054688	30.678154	50.4417
10616.432617	30.788185	50.4930
10693.363281	30.933977	50.5166
10770.852539	31.050827	50.5298
10848.902344	31.185320	50.5592
10927.517578	31.326601	50.5815
11006.703125	31.449348	50.6517
11086.461914	31.581043	50.6586
11166.798828	31.690552	50.6949
11247.718750	31.823078	50.7110
11329.223633	31.959648	50.7952
11411.320312	32.089241	50.8035
11494.011719	32.218376	50.8455
11577.301758	32.334438	50.8751
11661.195312	32.463104	50.9018
11745.697266	32.610382	50.9213
11830.811523	32.753708	50.9613
11916.542969	32.869827	50.9686
12002.894531	33.012135	51.0141
12089.873047	33.137787	51.0588
12177.480469	33.264164	51.1318
12265.723633	33.402794	51.1546
12354.606445	33.551285	51.1990
12444.132812	33.687920	51.1982
12534.308594	33.814735	51.2288
12625.136719	33.961601	51.2790
12716.624023	34.081421	51.3224
12808.773438	34.249519	51.3361
12901.591797	34.376160	51.3841
12995.082031	34.519302	51.4144
13089.250000	34.656921	51.4769
13184.099609	34.821068	51.5292
13279.636719	34.952507	51.5201
13375.867188	35.090744	51.5894
13472.793945	35.217564	51.6122
13570.422852	35.374153	51.6273
13668.759766	35.532120	51.6544
13767.809570	35.655651	51.7174
13867.577148	35.811413	51.7105
13968.067383	35.962048	51.7446
14069.285156	36.109459	51.8172
14171.237305	36.246616	51.8386
14273.927734	36.402756	51.8927
14377.362305	36.551403	51.9270
14481.546875	36.709576	51.9681
14586.486328	36.845268	52.0090
14692.185547	37.016670	52.0338
14798.651367	37.164848	52.0650
14905.888672	37.304913	52.1308
15013.902344	37.460743	52.1442
15122.700195	37.638592	52.1627
15232.285156	37.762939	52.2140
15342.664062	37.918339	52.2597
15453.843750	38.117813	52.2830
15565.829102	38.274704	52.3652
15678.625000	38.406506	52.3636
15792.239258	38.575752	52.4420
15906.675781	38.724850	52.4478
16021.942383	38.898041	52.4741
16138.043945	39.055279	52.5311
16254.986328	39.219204	52.5403
16372.777344	39.409050	52.6269
16491.421875	39.552082	52.6439
16610.923828	39.704037	52.6671
16731.294922	39.886932	52.7337
16852.535156	40.046799	52.7545
16974.656250	40.224548	52.8064
17097.662109	40.372185	52.8625
17221.558594	40.567760	52.9000
17346.353516	40.717838	52.9124
17472.052734	40.920006	52.9397
17598.662109	41.089024	53.0168
17726.189453	41.252804	53.0339
17854.640625	41.429436	53.0843
17984.021484	41.610577	53.1180
18114.341797	41.769539	53.1851
18245.605469	41.950516	53.1781
18377.820312	42.139969	53.2451
18510.994141	42.312065	53.3122
18645.132812	42.507587	53.3039
18780.242188	42.690498	53.3883
18916.332031	42.859692	53.4406
19053.408203	43.063908	53.4727
19191.476562	43.247410	53.4944
19330.546875	43.433666	53.5558
19470.623047	43.615002	53.5946
19611.714844	43.811661	53.6214
19753.830078	44.036701	53.6717
19896.974609	44.205753	53.6909
