* Measurement data measured by REW V5.31.1
* Source: EXCL: Microphone (USB Audio CODEC ), no input selected, R, volume: no control
* Format: 256k Log Swept Sine, 1 sweep at 0.0 dBFS, at 48000 Hz
* Dated: 21:05:16 16/07/2024
* Sense Resistor: 100.0
* Lead resistance: 0.000
* Input resistance: 20000.000
* Calibration factor: 1.0002
* Note: 
* Measurement: Tweeter Impedance
* Smoothing: None
* Frequency Step: 1/96 octave
* Start Frequency: 302.040 Hz
*
* Freq(Hz)	Z(Ohms)	Phase(degrees)
302.039795	3.560275	14.0971
304.228485	3.566208	14.2214
306.433044	3.570091	14.3543
308.653595	3.576472	14.4499
310.890228	3.583189	14.5563
313.143066	3.588973	14.6837
315.412231	3.599342	14.8174
317.697845	3.605051	14.9119
320.000000	3.611735	15.0541
322.318848	3.621252	15.1984
324.654510	3.627580	15.2760
327.007080	3.636614	15.4253
329.376709	3.646637	15.5275
331.763519	3.655497	15.6681
334.167603	3.666591	15.7999
336.589142	3.676748	15.9049
339.028198	3.682592	16.0452
341.484924	3.692918	16.1161
343.959473	3.700204	16.2700
346.451935	3.705944	16.3642
348.962463	3.720595	16.5611
351.491211	3.733025	16.7237
354.038239	3.742881	16.8234
356.603760	3.753808	16.9926
359.187866	3.766777	17.1551
361.790680	3.781540	17.2748
364.412354	3.794222	17.4141
367.053040	3.810119	17.5248
369.712860	3.826620	17.7402
372.391968	3.840410	17.7716
375.090454	3.853506	17.9014
377.808533	3.868458	18.0223
380.546265	3.882509	18.2506
383.303864	3.900759	18.4167
386.081451	3.914857	18.5688
388.879150	3.932752	18.7077
391.697144	3.950695	18.8391
394.535522	3.974330	19.0134
397.394501	3.994004	19.1803
400.274170	4.014074	19.2845
403.174744	4.034186	19.4364
406.096313	4.061338	19.5546
409.039062	4.085293	19.7230
412.003113	4.109349	19.8190
414.988647	4.136053	19.9249
417.995850	4.163879	19.9824
421.024811	4.193286	20.1293
424.075714	4.222155	20.1861
427.148743	4.253227	20.3284
430.244049	4.288717	20.3635
433.361786	4.320442	20.4663
436.502106	4.354866	20.5101
439.665161	4.389107	20.5230
442.851166	4.427858	20.5818
446.060242	4.465174	20.5695
449.292572	4.505632	20.5914
452.548340	4.551806	20.5581
455.827698	4.590506	20.4187
459.130798	4.635276	20.3149
462.457855	4.671872	20.1464
465.809021	4.701666	20.0162
469.184448	4.742533	19.9629
472.584381	4.781651	19.9127
476.008911	4.828206	19.7741
479.458252	4.870363	19.6168
482.932617	4.912964	19.4749
486.432159	4.959160	19.2669
489.957031	5.000231	19.0979
493.507477	5.047905	18.8764
497.083618	5.093941	18.7067
500.685699	5.134359	18.4825
504.313873	5.179365	18.2987
507.968323	5.226068	18.1047
511.649292	5.277078	17.8804
515.356934	5.329767	17.7168
519.091370	5.380955	17.5072
522.852966	5.434008	17.2576
526.641724	5.492614	17.0153
530.458008	5.557561	16.7324
534.301941	5.621026	16.4579
538.173706	5.688388	16.0963
542.073547	5.759448	15.6727
546.001648	5.830841	15.1958
549.958191	5.905083	14.7418
553.943420	5.983177	14.1575
557.957520	6.059325	13.6045
562.000671	6.131919	12.9641
566.073181	6.205071	12.2260
570.175171	6.285628	11.4670
574.306885	6.357742	10.5386
578.468567	6.425333	9.6239
582.660400	6.490160	8.6657
586.882568	6.544983	7.5495
591.135376	6.594480	6.5499
595.419006	6.638733	5.4166
599.733643	6.675903	4.2704
604.079590	6.705648	3.1116
608.456970	6.727199	1.8128
612.866089	6.731354	0.6129
617.307190	6.730551	-0.5804
621.780457	6.724456	-1.7958
626.286133	6.704943	-3.0178
630.824463	6.680103	-4.2438
635.395691	6.636592	-5.3645
640.000000	6.594703	-6.5375
644.637695	6.539865	-7.6122
649.309021	6.482738	-8.6686
654.014160	6.426833	-9.7045
658.753418	6.354325	-10.6228
663.527039	6.285442	-11.5666
668.335205	6.204996	-12.4496
673.178284	6.131135	-13.1943
678.056396	6.051180	-13.9057
682.969849	5.973394	-14.6040
687.918945	5.891281	-15.2403
692.903870	5.807879	-15.8438
697.924927	5.731454	-16.3266
702.982422	5.651295	-16.8398
708.076477	5.568143	-17.2452
713.207520	5.493387	-17.5883
718.375732	5.417300	-17.9276
723.581360	5.342281	-18.2476
728.824707	5.269382	-18.4779
734.106079	5.200019	-18.7131
739.425720	5.129084	-18.9033
744.783936	5.065548	-19.0539
750.180908	5.002775	-19.1329
755.617065	4.945632	-19.1978
761.092529	4.878907	-19.3037
766.607727	4.823141	-19.3140
772.162903	4.769769	-19.2588
777.758301	4.714458	-19.2741
783.394287	4.667885	-19.2945
789.071045	4.617933	-19.2716
794.789001	4.570645	-19.2120
800.548340	4.525603	-19.1289
806.349487	4.480118	-19.0264
812.192627	4.437801	-18.8901
818.078125	4.394536	-18.7442
824.006226	4.356778	-18.6414
829.977295	4.322533	-18.4985
835.991699	4.292341	-18.3349
842.049622	4.255323	-18.2233
848.151428	4.222545	-18.0046
854.297485	4.198143	-17.9079
860.488098	4.162807	-17.7492
866.723572	4.133327	-17.5840
873.004211	4.109615	-17.4740
879.330322	4.082971	-17.2160
885.702332	4.059632	-17.0157
892.120483	4.031734	-16.8830
898.585144	4.014149	-16.6327
905.096680	3.989907	-16.4713
911.655396	3.964308	-16.3203
918.261597	3.946119	-16.1298
924.915710	3.924929	-15.8969
931.618042	3.908315	-15.7465
938.368896	3.888487	-15.5569
945.168762	3.869786	-15.3563
952.017822	3.858572	-15.1888
958.916504	3.839962	-14.9715
965.865234	3.825715	-14.7585
972.864319	3.812455	-14.5506
979.914062	3.800621	-14.3895
987.014954	3.783180	-14.2176
994.167236	3.768460	-14.0112
1001.371399	3.761856	-13.8713
1008.627747	3.746269	-13.6384
1015.936646	3.742136	-13.4528
1023.298584	3.723823	-13.2898
1030.713867	3.713501	-13.1906
1038.182739	3.703728	-13.0077
1045.705933	3.694972	-12.8330
1053.283447	3.691465	-12.6918
1060.916016	3.677055	-12.4400
1068.603882	3.663222	-12.3205
1076.347412	3.656151	-12.0961
1084.147095	3.652075	-11.9066
1092.003296	3.645213	-11.7002
1099.916382	3.635028	-11.6065
1107.886841	3.631866	-11.4162
1115.915039	3.619136	-11.2938
1124.001343	3.614409	-11.1540
1132.146362	3.609464	-11.0460
1140.350342	3.601155	-10.7914
1148.613770	3.592899	-10.6792
1156.937134	3.587624	-10.6207
1165.320801	3.581207	-10.3530
1173.765137	3.574332	-10.2775
1182.270752	3.573133	-10.0799
1190.838013	3.571656	-9.9657
1199.467285	3.567716	-9.8674
1208.159180	3.557269	-9.6702
1216.913940	3.556515	-9.5542
1225.732178	3.549023	-9.4139
1234.614380	3.550632	-9.2668
1243.560913	3.542225	-9.1732
1252.572266	3.535551	-9.0469
1261.648926	3.532948	-8.9549
1270.791382	3.530381	-8.8095
1280.000000	3.531446	-8.7028
1289.275391	3.523346	-8.5729
1298.618042	3.518023	-8.5172
1308.028320	3.514926	-8.4119
1317.506836	3.514125	-8.2821
1327.054077	3.509296	-8.0802
1336.670410	3.508069	-8.0660
1346.356567	3.503465	-7.8996
1356.112793	3.506926	-7.8507
1365.939697	3.500746	-7.6943
1375.837891	3.498719	-7.7248
1385.807739	3.495643	-7.5220
1395.849854	3.495161	-7.3971
1405.964844	3.489793	-7.3666
1416.152954	3.491924	-7.2981
1426.415039	3.485565	-7.2233
1436.751465	3.480843	-7.0544
1447.162720	3.484990	-7.0361
1457.649414	3.480807	-6.9703
1468.212158	3.474908	-6.8377
1478.851440	3.472775	-6.7323
1489.567871	3.466908	-6.7392
1500.361816	3.464758	-6.5594
1511.234131	3.465628	-6.4595
1522.185059	3.459471	-6.4269
1533.215454	3.458270	-6.3545
1544.325806	3.457333	-6.2787
1555.516602	3.456369	-6.1940
1566.788574	3.448040	-6.1408
1578.142090	3.450400	-5.9498
1589.578003	3.446161	-5.9475
1601.096680	3.441278	-5.8226
1612.698975	3.439065	-5.6764
1624.385254	3.437608	-5.6578
1636.156250	3.435084	-5.5041
1648.012451	3.429815	-5.5023
1659.954590	3.425115	-5.4481
1671.983398	3.420117	-5.2908
1684.099243	3.419951	-5.2487
1696.302856	3.409681	-5.0794
1708.594971	3.417113	-4.9309
1720.976196	3.408230	-4.9079
1733.447144	3.411045	-4.7558
1746.008423	3.405070	-4.6877
1758.660645	3.406669	-4.5714
1771.404663	3.405577	-4.4464
1784.240967	3.398232	-4.3150
1797.170288	3.401774	-4.2339
1810.193359	3.399010	-4.1656
1823.310791	3.397447	-3.9546
1836.523193	3.397793	-3.8473
1849.831421	3.403430	-3.8021
1863.236084	3.403556	-3.7800
1876.737793	3.397261	-3.5914
1890.337524	3.393139	-3.5627
1904.035645	3.400568	-3.4541
1917.833008	3.398510	-3.3967
1931.730469	3.395309	-3.1525
1945.728638	3.402601	-3.0152
1959.828125	3.398158	-3.0407
1974.029907	3.400922	-2.9374
1988.334473	3.401605	-2.8381
2002.742798	3.403928	-2.7546
2017.255493	3.400357	-2.6987
2031.873291	3.404496	-2.6609
2046.597168	3.395502	-2.5903
2061.427734	3.398496	-2.4823
2076.365479	3.408445	-2.4362
2091.411865	3.401155	-2.3505
2106.566895	3.406687	-2.3082
2121.832031	3.399762	-2.1198
2137.207764	3.401813	-2.1203
2152.694824	3.400144	-2.1074
2168.294189	3.403701	-1.9106
2184.006592	3.399423	-1.8308
2199.832764	3.403866	-1.8356
2215.773682	3.404665	-1.6863
2231.830078	3.404265	-1.6946
2248.002686	3.405405	-1.6459
2264.292725	3.404602	-1.5629
2280.700684	3.409044	-1.5320
2297.227539	3.407614	-1.3914
2313.874268	3.401539	-1.4215
2330.641602	3.409487	-1.2737
2347.530273	3.407914	-1.2080
2364.541504	3.403427	-1.1351
2381.676025	3.405195	-1.1289
2398.934570	3.410272	-0.9722
2416.318359	3.413169	-0.9744
2433.827881	3.401913	-0.7489
2451.464355	3.407777	-0.8335
2469.228760	3.409826	-0.7600
2487.121826	3.414483	-0.6447
2505.144531	3.413949	-0.5802
2523.297852	3.408212	-0.6008
2541.582764	3.413210	-0.5503
2560.000000	3.420263	-0.4299
2578.550781	3.411125	-0.4419
2597.236084	3.417199	-0.3431
2616.056641	3.414443	-0.1869
2635.013672	3.421231	-0.2195
2654.108154	3.419912	-0.1544
2673.340820	3.416970	-0.0819
2692.713135	3.420411	-0.0325
2712.225586	3.414787	0.0667
2731.879395	3.415298	0.0645
2751.675781	3.418833	0.1527
2771.615479	3.421279	0.2315
2791.699707	3.424814	0.2114
2811.929688	3.422213	0.2981
2832.305908	3.422432	0.3346
2852.830078	3.426011	0.3319
2873.502930	3.421484	0.4406
2894.325439	3.426004	0.6091
2915.298828	3.421314	0.6435
2936.424316	3.428346	0.6291
2957.702881	3.423240	0.6948
2979.135742	3.433465	0.6982
3000.723633	3.436385	0.7673
3022.468262	3.431454	0.8565
3044.370117	3.428936	0.8429
3066.430908	3.436440	0.9211
3088.651611	3.433875	1.0325
3111.033203	3.438455	1.0322
3133.577148	3.443140	1.1060
3156.284180	3.442319	1.2452
3179.156006	3.443815	1.1547
3202.193359	3.443368	1.2943
3225.397949	3.438334	1.3075
3248.770508	3.444164	1.3616
3272.312500	3.445107	1.3208
3296.024902	3.444883	1.5338
3319.909180	3.448348	1.5414
3343.966797	3.446200	1.5653
3368.198486	3.440851	1.5448
3392.605713	3.454519	1.6377
3417.189941	3.451899	1.6865
3441.952393	3.450252	1.7285
3466.894287	3.451767	1.7492
3492.016846	3.461137	1.8842
3517.321289	3.447817	1.8563
3542.809326	3.452153	1.8347
3568.481934	3.456736	1.8852
3594.340576	3.458195	2.0700
3620.386719	3.462087	2.0601
3646.621582	3.458371	2.0920
3673.046387	3.461160	2.0901
3699.662842	3.458203	2.1033
3726.472168	3.470976	2.1944
3753.475586	3.473035	2.3279
3780.675049	3.468943	2.2557
3808.071289	3.467055	2.3602
3835.666016	3.467316	2.4874
3863.460938	3.477082	2.3538
3891.457275	3.472360	2.4093
3919.656250	3.470004	2.6026
3948.059814	3.467585	2.6789
3976.668945	3.483952	2.7304
4005.485596	3.474778	2.6293
4034.510986	3.483339	2.8986
4063.746582	3.481864	2.7844
4093.194336	3.487754	2.7570
4122.855469	3.480022	2.8297
4152.730957	3.491965	2.8112
4182.823730	3.473556	2.9465
4213.133789	3.481348	2.9043
4243.664062	3.490268	2.9810
4274.415527	3.486378	3.1319
4305.389648	3.487688	3.1223
4336.588379	3.498395	3.2082
4368.013184	3.493402	3.2393
4399.665527	3.487817	3.2925
4431.547363	3.496624	3.2170
4463.660156	3.506791	3.1612
4496.005371	3.484879	3.2879
4528.585449	3.493938	3.2043
4561.401367	3.500143	3.4936
4594.455078	3.495621	3.5319
4627.748535	3.498727	3.4420
4661.283203	3.504497	3.4459
4695.060547	3.511396	3.5683
4729.083008	3.501288	3.4114
4763.352051	3.505941	3.5843
4797.869141	3.515658	3.7847
4832.636719	3.511037	3.6301
4867.655762	3.503255	3.7120
4902.928711	3.514249	3.6215
4938.457520	3.511785	3.8515
4974.243652	3.513842	3.8466
5010.289062	3.518769	3.9971
5046.595703	3.513880	3.8936
5083.165527	3.523515	3.9820
5120.000000	3.519858	4.0659
5157.101562	3.520393	4.1466
5194.472168	3.533325	4.0751
5232.113281	3.525839	4.0429
5270.027344	3.537690	4.0806
5308.216309	3.542193	4.0958
5346.681641	3.534874	4.2175
5385.426270	3.531900	4.1186
5424.451172	3.531907	4.0192
5463.758789	3.535832	4.1800
5503.351562	3.523281	4.1924
5543.230957	3.535364	4.1737
5583.399414	3.531267	4.2225
5623.859375	3.530434	4.3538
5664.611816	3.527562	4.4414
5705.660156	3.540067	4.3884
5747.005859	3.539051	4.4159
5788.650879	3.538403	4.4712
5830.597656	3.535292	4.6496
5872.848633	3.533110	4.7338
5915.405762	3.549736	4.5804
5958.271484	3.550811	4.8932
6001.447266	3.544246	4.7098
6044.936523	3.544776	4.8301
6088.740234	3.550006	4.9021
6132.861816	3.539394	4.9298
6177.303223	3.544060	4.9756
6222.066406	3.546147	5.0016
6267.154297	3.544575	4.9959
6312.568359	3.549192	5.0445
6358.312012	3.558900	5.0188
6404.386719	3.552983	5.0549
6450.795898	3.563291	5.1930
6497.541016	3.552694	5.2690
6544.625000	3.559093	5.1384
6592.049805	3.558407	5.3902
6639.818359	3.557042	5.4028
6687.933594	3.553880	5.4881
6736.396973	3.559355	5.4219
6785.211426	3.559831	5.2935
6834.379883	3.564060	5.4370
6883.904785	3.570364	5.5263
6933.788574	3.560913	5.5491
6984.033691	3.576836	5.5436
7034.642578	3.568895	5.7471
7085.618652	3.567266	5.6201
7136.963867	3.572241	5.7089
7188.681152	3.561662	5.8029
7240.773438	3.586381	5.8410
7293.243164	3.574357	5.6856
7346.092773	3.580978	5.7298
7399.325684	3.582843	5.8844
7452.944336	3.580159	5.9376
7506.951172	3.585558	6.0637
7561.350098	3.582000	5.9463
7616.142578	3.578427	6.1828
7671.332031	3.593034	6.2101
7726.921875	3.593423	6.2271
7782.914551	3.593629	6.2417
7839.312500	3.590489	6.3376
7896.119629	3.592033	6.2747
7953.337891	3.588778	6.3710
8010.971191	3.600039	6.1457
8069.021973	3.600256	6.4796
8127.493164	3.601256	6.3156
8186.388672	3.597901	6.4744
8245.710938	3.596721	6.5514
8305.461914	3.607962	6.5943
8365.647461	3.596900	6.5799
8426.267578	3.605384	6.4047
8487.328125	3.605130	6.7423
8548.831055	3.612835	6.8078
8610.779297	3.613600	6.7401
8673.176758	3.611583	6.7955
8736.026367	3.620548	6.9216
8799.331055	3.614650	6.8380
8863.094727	3.616090	6.9371
8927.320312	3.617292	7.0225
8992.010742	3.623531	6.9844
9057.170898	3.622825	7.1442
9122.802734	3.612019	7.1140
9188.910156	3.617268	7.1649
9255.497070	3.622388	7.2249
9322.566406	3.623207	7.2761
9390.121094	3.625392	7.2727
9458.166016	3.610316	7.3900
9526.704102	3.628242	7.3536
9595.738281	3.631509	7.4858
9665.273438	3.631511	7.4909
9735.311523	3.642125	7.3607
9805.857422	3.644238	7.6765
9876.915039	3.635642	7.4296
9948.487305	3.642798	7.6269
10020.578125	3.631524	7.6628
10093.191406	3.642081	7.7066
10166.331055	3.646823	7.6376
10240.000000	3.635903	7.9800
10314.203125	3.645585	7.7826
10388.944336	3.648405	7.7938
10464.226562	3.642496	7.9085
10540.054688	3.665018	7.9649
10616.432617	3.646798	8.0451
10693.363281	3.654363	8.1025
10770.852539	3.660666	8.0553
10848.902344	3.658771	8.1592
10927.517578	3.663990	8.2194
11006.703125	3.658782	8.1995
11086.461914	3.657506	8.4417
11166.798828	3.670027	8.2978
11247.718750	3.679068	8.2513
11329.223633	3.669609	8.5136
11411.320312	3.669532	8.3653
11494.011719	3.667993	8.2950
11577.301758	3.665229	8.5931
11661.195312	3.672563	8.7013
11745.697266	3.671569	8.6151
11830.811523	3.672236	9.0461
11916.542969	3.688129	8.9542
12002.894531	3.681238	9.0461
12089.873047	3.675870	8.8798
12177.480469	3.688015	9.0338
12265.723633	3.690211	9.0225
12354.606445	3.669336	8.8932
12444.132812	3.685133	8.9530
12534.308594	3.682621	9.1988
12625.136719	3.706717	9.2326
12716.624023	3.682815	9.3378
12808.773438	3.685265	9.2020
12901.591797	3.685819	9.3528
12995.082031	3.689528	9.6299
13089.250000	3.710598	9.5344
13184.099609	3.689878	9.5812
13279.636719	3.697747	9.7521
13375.867188	3.701340	9.7426
13472.793945	3.698794	9.5716
13570.422852	3.714478	9.9024
13668.759766	3.706276	9.8546
13767.809570	3.699759	9.6409
13867.577148	3.709516	9.6633
13968.067383	3.712851	10.1115
14069.285156	3.714483	9.9459
14171.237305	3.707428	10.2401
14273.927734	3.683921	9.8980
14377.362305	3.743253	10.1963
14481.546875	3.731499	10.3127
14586.486328	3.724460	10.2524
14692.185547	3.724947	10.2481
14798.651367	3.733437	10.5935
14905.888672	3.733098	10.3345
15013.902344	3.740759	10.6158
15122.700195	3.741548	10.5090
15232.285156	3.740294	10.6386
15342.664062	3.729452	10.7773
15453.843750	3.741035	10.5158
15565.829102	3.742634	10.6193
15678.625000	3.736702	10.8518
15792.239258	3.736250	10.9536
15906.675781	3.748992	10.9074
16021.942383	3.743683	10.9742
16138.043945	3.756675	10.8252
16254.986328	3.747962	11.1738
16372.777344	3.746004	11.0960
16491.421875	3.759083	11.2592
16610.923828	3.751342	11.2220
16731.294922	3.765090	11.5130
16852.535156	3.774560	11.5530
16974.656250	3.757045	11.4707
17097.662109	3.759472	11.6974
17221.558594	3.760553	11.6343
17346.353516	3.789510	11.6248
17472.052734	3.773093	11.6230
17598.662109	3.778213	11.8525
17726.189453	3.791109	11.9740
17854.640625	3.776488	11.7290
17984.021484	3.773009	12.0713
18114.341797	3.769013	12.1332
18245.605469	3.785181	12.0697
18377.820312	3.793009	12.3805
18510.994141	3.791958	12.2796
18645.132812	3.805284	12.4608
18780.242188	3.794680	12.4169
18916.332031	3.788152	12.7511
19053.408203	3.792503	12.6171
19191.476562	3.818869	12.4332
19330.546875	3.826161	12.8734
19470.623047	3.806903	12.8749
19611.714844	3.802963	13.0697
19753.830078	3.814211	12.7932
19896.974609	3.810934	12.9088
