* Measurement data measured by REW V5.20.9
* Source: Microphone (USB Audio CODEC ), MICROPHONE (Master Volume), R, volume: 0.700
* Format: 512k Log Swept Sine, 1 sweep at -15.0 dBFS, at 48000 Hz
* Dated: 19:32:17 21/08/2022
* Sense Resistor: 100.0
* Lead resistance: 0.000
* Input resistance: 20000.000
* Calibration factor: 1.0002
* Note: 
* Measurement: Woofer
* Smoothing: None
* Frequency Step: 1/96 octave
* Start Frequency: 20.145 Hz
*
* Freq(Hz)	Z(Ohms)	Phase(degrees)
20.144928	13.176118	-27.3230
20.290907	12.818114	-27.0210
20.437943	12.457520	-26.6092
20.586044	12.113173	-26.2602
20.735220	11.801838	-25.9542
20.885475	11.506224	-25.6114
21.036821	11.235029	-25.2321
21.189262	10.967412	-24.7782
21.342808	10.655268	-24.1855
21.497467	10.312562	-23.4650
21.653246	10.042493	-22.4734
21.810154	9.870189	-21.0709
21.968201	9.730402	-19.7320
22.127390	9.587221	-18.7795
22.287735	9.462380	-18.0381
22.449242	9.383852	-17.4682
22.611917	9.336699	-17.0668
22.775772	9.184817	-16.6420
22.940815	8.903631	-16.2498
23.107054	8.694714	-15.4516
23.274498	8.638508	-13.9096
23.443153	8.596414	-12.4613
23.613033	8.488652	-11.7857
23.784142	8.376523	-11.1791
23.956491	8.302503	-9.9184
24.130091	8.246469	-8.4578
24.304947	8.193326	-7.4031
24.481071	8.144955	-6.5360
24.658470	8.093884	-5.5289
24.837156	8.041852	-4.4487
25.017136	7.989161	-3.3920
25.198421	7.938093	-2.3384
25.381020	7.908846	-1.1778
25.564941	7.898369	0.0554
25.750195	7.895310	1.1062
25.936790	7.898881	2.0236
26.124741	7.889951	3.0323
26.314051	7.876958	4.0913
26.504732	7.901845	5.1298
26.696796	7.943890	6.1060
26.890253	7.944270	6.7343
27.085112	7.930750	7.3392
27.281382	7.935823	8.6292
27.479073	7.958543	9.9936
27.678198	8.011524	10.8136
27.878765	8.074394	11.7577
28.080786	8.140332	13.1791
28.284271	8.195723	14.2996
28.489231	8.237780	15.0047
28.695675	8.310410	16.3651
28.903616	8.407238	18.0133
29.113064	8.517774	18.4815
29.324028	8.612132	18.6701
29.536524	8.651944	19.3506
29.750557	8.663399	19.8480
29.966141	8.652270	20.0691
30.183289	8.687883	21.2350
30.402010	8.773886	22.7265
30.622314	8.948252	23.3018
30.844217	9.095176	23.8525
31.067726	9.174937	24.6138
31.292856	9.278527	25.4310
31.519617	9.391448	26.2403
31.748020	9.499128	26.9314
31.978081	9.597557	27.5488
32.209808	9.692871	28.1218
32.443211	9.820286	28.8174
32.678310	9.977179	29.3864
32.915108	10.162827	29.7469
33.153625	10.312189	30.5773
33.393871	10.529934	31.5218
33.635857	10.897778	32.3342
33.879597	11.139943	32.0929
34.125103	11.228578	32.0372
34.372387	11.129593	33.2780
34.621464	11.477495	34.5883
34.872345	11.842290	35.0079
35.125042	11.935822	33.9706
35.379574	12.131622	35.0665
35.635948	12.416275	35.7792
35.894180	12.765944	35.4635
36.154285	13.054472	36.0399
36.416275	13.256628	35.8936
36.680161	13.388539	35.6453
36.945961	13.487280	36.5716
37.213688	13.670403	37.2165
37.483353	14.157045	37.8639
37.754974	14.861678	38.1296
38.028561	15.274302	36.5731
38.304131	15.594653	37.0787
38.581699	16.091785	37.8703
38.861279	16.749454	37.9766
39.142883	17.144936	37.5979
39.426529	17.410461	37.7583
39.712231	17.811277	37.9088
40.000000	18.315439	37.7365
40.289856	18.767422	37.2040
40.581814	19.422092	37.1766
40.875885	20.124903	36.3869
41.172089	20.803650	35.6634
41.470440	21.450745	35.1069
41.770950	22.120092	34.2217
42.073643	22.908005	33.4978
42.378525	23.574196	32.2386
42.685616	24.296066	31.3666
42.994934	25.134371	30.3940
43.306492	25.948891	29.1535
43.620308	26.660324	28.1605
43.936401	27.881689	26.8567
44.254780	28.531630	24.3227
44.575470	29.273367	22.7532
44.898483	30.120728	20.4816
45.223835	30.782242	18.2014
45.551544	31.509079	16.1900
45.881630	32.410419	13.7098
46.214108	32.997509	10.6951
46.548996	33.487770	7.8468
46.886307	33.687492	4.7919
47.226067	34.164322	2.3114
47.568283	34.298599	-1.0827
47.912983	34.232662	-3.4578
48.260181	34.210617	-6.3183
48.609894	33.877960	-9.1239
48.962143	33.337887	-11.6974
49.316940	32.980526	-14.0828
49.674313	32.537811	-16.8103
50.034271	31.830582	-19.3081
50.396843	31.126825	-21.4574
50.762039	30.344028	-23.5737
51.129883	29.530794	-25.4121
51.500389	28.839134	-27.2058
51.873581	28.048923	-29.0547
52.249481	27.332081	-30.3166
52.628101	26.745642	-31.8395
53.009464	25.922071	-33.1745
53.393593	25.176928	-34.0507
53.780506	24.511175	-35.0440
54.170223	23.802736	-35.9836
54.562763	23.174044	-36.7615
54.958145	22.580265	-37.7493
55.356396	21.874466	-38.6217
55.757530	21.236412	-39.0359
56.161572	20.805658	-39.4916
56.568542	20.363167	-40.1733
56.978462	19.888445	-40.6662
57.391350	19.419601	-41.0686
57.807232	18.899956	-41.1572
58.226128	18.566994	-41.3774
58.648056	18.105684	-41.7644
59.073048	17.717285	-41.9774
59.501114	17.334499	-42.0094
59.932281	17.000595	-42.1659
60.366577	16.632673	-42.2458
60.804020	16.351124	-42.4297
61.244629	15.984464	-42.4224
61.688435	15.760785	-42.3543
62.135452	15.485540	-42.5669
62.585712	15.044771	-42.6009
63.039234	14.839384	-42.2279
63.496040	14.610601	-42.3572
63.956161	14.290174	-42.4607
64.419617	14.232489	-41.7381
64.886421	13.901778	-42.4306
65.356621	13.679871	-41.7663
65.830215	13.717366	-40.2098
66.307251	13.572751	-42.1007
66.787743	13.297075	-41.5051
67.271713	12.741120	-41.3174
67.759193	12.737584	-39.7636
68.250206	12.849710	-40.4369
68.744774	12.508538	-39.5357
69.242928	12.493238	-39.8015
69.744690	12.345535	-40.9120
70.250084	12.044201	-39.7576
70.759148	11.971762	-40.0199
71.271896	11.811264	-38.9899
71.788361	11.796192	-39.4024
72.308571	11.468475	-39.4750
72.832550	11.439322	-38.2446
73.360321	11.386283	-38.0724
73.891922	11.164775	-37.7899
74.427376	10.996239	-37.7746
74.966705	10.986994	-38.2857
75.509949	10.868801	-37.7205
76.057121	10.844269	-37.1909
76.608261	10.618955	-36.6325
77.163399	10.542403	-36.1542
77.722557	10.523238	-36.1715
78.285767	10.370951	-35.7619
78.853058	10.324630	-35.5214
79.424461	10.209860	-35.2444
80.000000	10.124784	-35.7098
80.579712	9.990392	-35.1149
81.163628	9.892383	-35.0805
81.751770	9.907289	-34.3018
82.344177	9.831257	-33.3608
82.940880	9.821632	-34.1674
83.541901	9.764750	-33.5619
84.147285	9.673089	-33.7611
84.757050	9.581875	-33.0383
85.371231	9.581715	-32.7406
85.989868	9.439034	-32.9381
86.612984	9.317753	-32.3973
87.240616	9.381343	-31.2701
87.872803	9.251548	-32.0650
88.509560	9.194872	-31.0039
89.150940	9.160507	-30.7482
89.796967	9.091554	-30.7373
90.447670	9.073083	-31.2914
91.103088	9.045186	-30.2265
91.763260	8.994030	-30.6420
92.428215	8.898964	-29.4287
93.097992	8.919273	-29.3791
93.772614	8.882092	-29.6796
94.452133	8.802993	-28.5622
95.136566	8.832134	-28.7531
95.825966	8.748079	-28.2794
96.520363	8.698385	-28.1832
97.219788	8.717546	-27.9071
97.924286	8.616021	-27.6264
98.633881	8.580940	-27.4713
99.348625	8.561840	-27.2453
100.068542	8.600836	-28.0666
100.793686	8.520081	-26.8408
101.524078	8.446063	-26.3144
102.259766	8.489879	-25.7880
103.000778	8.420813	-25.4504
103.747162	8.322556	-25.0624
104.498962	8.427547	-25.1163
105.256203	8.401361	-24.3635
106.018929	8.239859	-24.3051
106.787186	8.200087	-24.7544
107.561012	8.283182	-24.0395
108.340446	8.237407	-23.9915
109.125526	8.208012	-23.6101
109.916290	8.164465	-23.4727
110.712791	8.146971	-23.1791
111.515060	8.121230	-22.7831
112.323143	8.124198	-22.6416
113.137085	8.058607	-22.6605
113.956924	8.029806	-22.3121
114.782700	8.019237	-22.0718
115.614464	8.051290	-21.6608
116.452255	7.985043	-21.3166
117.296112	7.950074	-21.0960
118.146095	8.000314	-21.3208
119.002228	7.944338	-20.8981
119.864563	7.886992	-20.6863
120.733154	7.880850	-20.2641
121.608040	7.880667	-20.0462
122.489258	7.862631	-19.8376
123.376869	7.843755	-19.4381
124.270905	7.816393	-19.3772
125.171425	7.824306	-19.3905
126.078468	7.808635	-18.9519
126.992081	7.780668	-18.7602
127.912323	7.781864	-18.5772
128.839233	7.792410	-18.3917
129.772842	7.753208	-17.7425
130.713242	7.752090	-18.1325
131.660431	7.605782	-17.3161
132.614502	7.765950	-17.4038
133.575485	7.756539	-17.3653
134.543427	7.712641	-16.8345
135.518387	7.651221	-17.0574
136.500412	7.647558	-16.6845
137.489548	7.619262	-16.0743
138.485855	7.651319	-16.2734
139.489380	7.708773	-15.4942
140.500168	7.642056	-16.4047
141.518295	7.630821	-15.6322
142.543793	7.587754	-15.2928
143.576721	7.568265	-15.3414
144.617142	7.571332	-14.8572
145.665100	7.571702	-14.7460
146.720642	7.553812	-14.3621
147.783844	7.550310	-14.1728
148.854752	7.544518	-14.0675
149.933411	7.516534	-14.1096
151.019897	7.522095	-14.0595
152.114243	7.540363	-13.5770
153.216522	7.516328	-13.0174
154.326797	7.519396	-13.2862
155.445114	7.529199	-12.8481
156.571533	7.484285	-12.6922
157.706116	7.473697	-12.4594
158.848923	7.453944	-12.2530
160.000000	7.488607	-12.1026
161.159424	7.398611	-11.6189
162.327255	7.445786	-11.4801
163.503540	7.444612	-11.6032
164.688354	7.463090	-11.7379
165.881760	7.446490	-10.9573
167.083801	7.451695	-11.2416
168.294571	7.462469	-10.8119
169.514099	7.454686	-10.0460
170.742462	7.340611	-11.1447
171.979736	7.410266	-9.6911
173.225967	7.422318	-10.1711
174.481232	7.429367	-9.9680
175.745605	7.372910	-9.5441
177.019119	7.418417	-9.9298
178.301880	7.360526	-9.2775
179.593933	7.422381	-9.2527
180.895340	7.446173	-9.0438
182.206177	7.348828	-8.9078
183.526520	7.368069	-8.3896
184.856430	7.365360	-8.2847
186.195984	7.392670	-8.4142
187.545227	7.365991	-8.1939
188.904266	7.363711	-8.1835
190.273132	7.364858	-7.6834
191.651932	7.369402	-7.3676
193.040726	7.373153	-7.3481
194.439575	7.356360	-7.1377
195.848572	7.354345	-7.0040
197.267761	7.353034	-6.8694
198.697250	7.349978	-6.6371
200.137085	7.348044	-6.4578
201.587372	7.354882	-6.2517
203.048157	7.333006	-6.0813
204.519531	7.345858	-5.9598
206.001556	7.352320	-5.7485
207.494324	7.353510	-5.6447
208.997925	7.376023	-5.1841
210.512405	7.370116	-4.9545
212.037857	7.381276	-4.9103
213.574371	7.392241	-4.7007
215.122025	7.401799	-4.5436
216.680893	7.423862	-4.1327
218.251053	7.462917	-4.1772
219.832581	7.481967	-3.7641
221.425583	7.519652	-4.2206
223.030121	7.556330	-4.4418
224.646286	7.558683	-4.5217
226.274170	7.557798	-4.8748
227.913849	7.490766	-4.8578
229.565399	7.439334	-4.5108
231.228928	7.447009	-4.7170
232.904510	7.414694	-4.5244
234.592224	7.418883	-4.3575
236.292191	7.388303	-3.6305
238.004456	7.363801	-4.1697
239.729126	7.411801	-3.5468
241.466309	7.389285	-3.4983
243.216080	7.350433	-3.3897
244.978516	7.346509	-3.2705
246.753738	7.343341	-3.0452
248.541809	7.356190	-2.8115
250.342850	7.326949	-2.5711
252.156937	7.378956	-2.3270
253.984161	7.331951	-2.0585
255.824646	7.352532	-2.2579
257.678467	7.380657	-2.0785
259.545685	7.378780	-1.7851
261.426483	7.368305	-1.4652
263.320862	7.344378	-1.6904
265.229004	7.396464	-1.8266
267.150970	7.323408	-1.1947
269.086853	7.368320	-1.1587
271.036774	7.374882	-0.9877
273.000824	7.354804	-0.8647
274.979095	7.376099	-0.3361
276.971710	7.394508	-0.5074
278.978760	7.345669	-0.3237
281.000336	7.356444	-0.2339
283.036591	7.370787	0.0667
285.087585	7.424926	0.1322
287.153442	7.411996	0.1777
289.234283	7.382360	0.4161
291.330200	7.382762	0.3787
293.441284	7.388136	0.4956
295.567688	7.378741	0.6919
297.709503	7.395891	0.7656
299.866821	7.399572	0.8813
302.039795	7.382630	1.2943
304.228485	7.427186	1.4699
306.433044	7.443819	2.0323
308.653595	7.382426	1.5207
310.890228	7.382357	1.9105
313.143066	7.374787	1.9272
315.412231	7.403476	2.3497
317.697845	7.431123	2.2634
320.000000	7.443131	2.3968
322.318848	7.445126	2.3948
324.654510	7.441425	2.6888
327.007080	7.438719	2.8160
329.376709	7.459173	2.9036
331.763519	7.453629	3.2002
334.167603	7.466601	3.3702
336.589142	7.493214	3.4775
339.028198	7.464497	3.6267
341.484924	7.478316	4.0637
343.959473	7.497224	4.0727
346.451935	7.572969	4.3856
348.962463	7.594099	4.5822
351.491211	7.626924	4.6533
354.038239	7.690886	4.3857
356.603760	7.729850	3.9649
359.187866	7.721768	3.5154
361.790680	7.665480	3.0941
364.412354	7.620560	3.3096
367.053040	7.555243	3.5437
369.712860	7.545888	3.7778
372.391968	7.542038	3.9245
375.090454	7.546794	4.1592
377.808533	7.552235	4.3896
380.546265	7.543458	4.5385
383.303864	7.548484	4.7728
386.081451	7.553818	4.8767
388.879150	7.558998	5.0919
391.697144	7.564250	5.2321
394.535522	7.586456	5.4286
397.394501	7.578315	5.5321
400.274170	7.593482	5.7333
403.174744	7.575987	5.7919
406.096313	7.583041	5.9569
409.039062	7.584077	6.1037
412.003113	7.591899	6.1252
414.988647	7.597672	6.3200
417.995850	7.604527	6.4348
421.024811	7.618590	6.5937
424.075714	7.612619	6.7115
427.148743	7.640756	6.8219
430.244049	7.639715	7.0908
433.361786	7.654335	7.0187
436.502106	7.681131	7.2387
439.665161	7.676209	7.3642
442.851166	7.683267	7.2834
446.060242	7.696520	7.3319
449.292572	7.711541	7.3593
452.548340	7.707085	7.4068
455.827698	7.698078	7.6003
459.130798	7.689264	7.7826
462.457855	7.698337	7.9576
465.809021	7.704376	8.0058
469.184448	7.709240	8.1595
472.584381	7.701365	8.2594
476.008911	7.704807	8.3739
479.458252	7.715191	8.4963
482.932617	7.723072	8.7446
486.432159	7.730952	8.7301
489.957031	7.726661	8.9147
493.507477	7.744490	9.1655
497.083618	7.745361	9.2516
500.685699	7.766501	9.3683
504.313873	7.789503	9.4774
507.968323	7.770275	9.5993
511.649292	7.777485	9.7424
515.356934	7.791230	9.8997
519.091370	7.800225	10.0483
522.852966	7.816801	10.1119
526.641724	7.810810	10.2845
530.458008	7.837933	10.4470
534.301941	7.835269	10.5257
538.173706	7.851017	10.7147
542.073547	7.865201	10.8265
546.001648	7.880439	11.0009
549.958191	7.889451	11.0707
553.943420	7.923922	11.2456
557.957520	7.935642	11.3249
562.000671	7.958379	11.4783
566.073181	7.987054	11.4150
570.175171	8.002311	11.4101
574.306885	8.016302	11.4055
578.468567	8.008348	11.3708
582.660400	8.007090	11.3708
586.882568	7.998117	11.4137
591.135376	8.008019	11.5396
595.419006	8.004975	11.6212
599.733643	7.992014	11.8327
604.079590	8.013170	12.0450
608.456970	8.015189	12.1300
612.866089	8.032240	12.2823
617.307190	8.036880	12.3047
621.780457	8.059540	12.4534
626.286133	8.047586	12.4882
630.824463	8.058720	12.6211
635.395691	8.071683	12.7572
640.000000	8.079110	12.8301
644.637695	8.088072	12.9557
649.309021	8.101769	13.1219
654.014160	8.128865	13.1539
658.753418	8.126943	13.2375
663.527039	8.156617	13.2597
668.335205	8.150117	13.3641
673.178284	8.145249	13.4593
678.056396	8.153084	13.4861
682.969849	8.148466	13.6687
687.918945	8.158918	13.7670
692.903870	8.161014	13.9992
697.924927	8.174236	14.1463
702.982422	8.194234	14.2288
708.076477	8.197938	14.3329
713.207520	8.212265	14.5007
718.375732	8.228050	14.4976
723.581360	8.239558	14.6009
728.824707	8.252940	14.6450
734.106079	8.235967	14.7652
739.425720	8.246918	14.8604
744.783936	8.270344	15.0356
750.180908	8.273619	15.1149
755.617065	8.284421	15.2489
761.092529	8.287386	15.3928
766.607727	8.294329	15.5871
772.162903	8.312043	15.6582
777.758301	8.307261	15.8613
783.394287	8.324039	15.9968
789.071045	8.332731	16.0975
794.789001	8.345418	16.2024
800.548340	8.377535	16.3675
806.349487	8.386953	16.4965
812.192627	8.416271	16.6262
818.078125	8.437017	16.8550
824.006226	8.436545	16.8127
829.977295	8.465146	16.9437
835.991699	8.489404	17.0027
842.049622	8.497815	17.0377
848.151428	8.511298	17.1162
854.297485	8.550747	17.2284
860.488098	8.551771	17.2455
866.723572	8.562419	17.3434
873.004211	8.562944	17.3850
879.330322	8.562682	17.4154
885.702332	8.566536	17.5451
892.120483	8.577159	17.7644
898.585144	8.592726	17.9704
905.096680	8.593349	18.0922
911.655396	8.606209	18.1501
918.261597	8.636611	18.3162
924.915710	8.640571	18.4469
931.618042	8.657104	18.5845
938.368896	8.664936	18.7713
945.168762	8.686292	18.7651
952.017822	8.701473	18.9654
958.916504	8.716402	19.0107
965.865234	8.730907	19.1791
972.864319	8.746197	19.2667
979.914062	8.760685	19.3941
987.014954	8.777622	19.5491
994.167236	8.799170	19.7250
1001.371399	8.812801	19.7865
1008.627747	8.852902	19.9294
1015.936646	8.854405	20.0178
1023.298584	8.888961	20.1680
1030.713867	8.905205	20.2637
1038.182739	8.927999	20.4061
1045.705933	8.958245	20.4401
1053.283447	8.983172	20.6355
1060.916016	9.016558	20.7319
1068.603882	9.047322	20.9010
1076.347412	9.087973	20.9280
1084.147095	9.126286	20.8388
1092.003296	9.155439	20.7376
1099.916382	9.152322	20.5089
1107.886841	9.144897	20.4377
1115.915039	9.100168	20.4438
1124.001343	9.099817	20.8184
1132.146362	9.102522	20.9124
1140.350342	9.103802	21.1024
1148.613770	9.118073	21.3437
1156.937134	9.149956	21.4785
1165.320801	9.165780	21.6140
1173.765137	9.185793	21.7490
1182.270752	9.208344	21.9617
1190.838013	9.245226	22.0349
1199.467285	9.270332	22.1554
1208.159180	9.293136	22.2496
1216.913940	9.292931	22.3700
1225.732178	9.327050	22.4694
1234.614380	9.351388	22.6628
1243.560913	9.368988	22.8046
1252.572266	9.401100	22.9515
1261.648926	9.431829	22.9447
1270.791382	9.458545	23.1164
1280.000000	9.479087	23.2283
1289.275391	9.507448	23.3349
1298.618042	9.560701	23.4015
1308.028320	9.582832	23.3955
1317.506836	9.606145	23.4608
1327.054077	9.641020	23.5370
1336.670410	9.670287	23.5554
1346.356567	9.693208	23.7047
1356.112793	9.720468	23.7442
1365.939697	9.759158	23.7475
1375.837891	9.789962	23.8506
1385.807739	9.826117	23.7664
1395.849854	9.856682	23.7148
1405.964844	9.872113	23.6641
1416.152954	9.891177	23.7827
1426.415039	9.895979	23.7355
1436.751465	9.932382	23.7625
1447.162720	9.932798	23.7508
1457.649414	9.946495	23.6870
1468.212158	9.951217	23.7187
1478.851440	9.970680	23.7808
1489.567871	9.977549	23.8601
1500.361816	9.993947	23.8436
1511.234131	9.999794	23.8604
1522.185059	9.994889	23.9346
1533.215454	10.026537	23.9946
1544.325806	10.045563	24.1162
1555.516602	10.048985	24.1215
1566.788574	10.039077	24.2472
1578.142090	10.056048	24.3638
1589.578003	10.074152	24.3759
1601.096680	10.075227	24.5908
1612.698975	10.100442	24.6673
1624.385254	10.115108	24.7368
1636.156250	10.129694	24.7931
1648.012451	10.137270	24.9499
1659.954590	10.155227	25.0406
1671.983398	10.167837	25.1213
1684.099243	10.186692	25.2997
1696.302856	10.182641	25.3149
1708.594971	10.228132	25.3760
1720.976196	10.245633	25.4938
1733.447144	10.262520	25.6600
1746.008423	10.267767	25.7064
1758.660645	10.287422	25.8925
1771.404663	10.305462	26.0204
1784.240967	10.312954	26.0180
1797.170288	10.322474	26.3043
1810.193359	10.357136	26.3933
1823.310791	10.350158	26.5406
1836.523193	10.395827	26.5350
1849.831421	10.408025	26.8330
1863.236084	10.444698	26.9433
1876.737793	10.447887	26.9834
1890.337524	10.492120	27.2474
1904.035645	10.508119	27.2967
1917.833008	10.531704	27.3375
1931.730469	10.545074	27.5360
1945.728638	10.588171	27.6056
1959.828125	10.608264	27.7299
1974.029907	10.632114	27.9031
1988.334473	10.673431	27.9427
2002.742798	10.679480	28.0857
2017.255493	10.709320	28.1987
2031.873291	10.756507	28.2974
2046.597168	10.768869	28.4764
2061.427734	10.779493	28.6450
2076.365479	10.828370	28.6818
2091.411865	10.865217	28.7888
2106.566895	10.873939	28.8406
2121.832031	10.903815	28.9445
2137.207764	10.930570	29.0808
2152.694824	10.976320	29.2472
2168.294189	10.993878	29.3351
2184.006592	11.038940	29.3751
2199.832764	11.067489	29.5052
2215.773682	11.086462	29.5563
2231.830078	11.104433	29.6950
2248.002686	11.149849	29.7367
2264.292725	11.185334	29.9204
2280.700684	11.202338	30.0126
2297.227539	11.240880	30.1534
2313.874268	11.273363	30.2065
2330.641602	11.299510	30.3221
2347.530273	11.348363	30.4600
2364.541504	11.369579	30.5079
2381.676025	11.395363	30.5679
2398.934570	11.438370	30.6940
2416.318359	11.472982	30.8695
2433.827881	11.498121	30.8337
2451.464355	11.515282	30.9849
2469.228760	11.576576	31.0782
2487.121826	11.593430	31.2062
2505.144531	11.624048	31.2211
2523.297852	11.677504	31.3107
2541.582764	11.714626	31.4087
2560.000000	11.747369	31.4952
2578.550781	11.768186	31.6235
2597.236084	11.811996	31.7642
2616.056641	11.825630	31.7972
2635.013672	11.881792	31.8410
2654.108154	11.903329	31.8665
2673.340820	11.967656	32.0870
2692.713135	11.977842	32.0741
2712.225586	12.017807	32.2374
2731.879395	12.060445	32.4217
2751.675781	12.100965	32.4068
2771.615479	12.123556	32.5327
2791.699707	12.148473	32.6526
2811.929688	12.198483	32.7431
2832.305908	12.201355	32.6699
2852.830078	12.281191	32.9165
2873.502930	12.308698	32.9424
2894.325439	12.343598	33.0519
2915.298828	12.383186	33.1726
2936.424316	12.429302	33.2128
2957.702881	12.469819	33.2640
2979.135742	12.500305	33.4085
3000.723633	12.542560	33.4661
3022.468262	12.582859	33.6023
3044.370117	12.628268	33.5059
3066.430908	12.659185	33.7222
3088.651611	12.710090	33.7065
3111.033203	12.746799	33.8737
3133.577148	12.787644	33.9611
3156.284180	12.823889	33.9277
3179.156006	12.859900	34.0130
3202.193359	12.908889	34.1135
3225.397949	12.947848	34.2063
3248.770508	12.990742	34.3233
3272.312500	13.021620	34.3354
3296.024902	13.068048	34.5181
3319.909180	13.112337	34.5113
3343.966797	13.162213	34.6033
3368.198486	13.198540	34.7158
3392.605713	13.244314	34.6967
3417.189941	13.296165	34.7932
3441.952393	13.341169	34.9399
3466.894287	13.360847	34.9384
3492.016846	13.405460	35.0720
3517.321289	13.472548	35.2469
3542.809326	13.496098	35.1724
3568.481934	13.549568	35.2351
3594.340576	13.610316	35.3824
3620.386719	13.640439	35.3778
3646.621582	13.689613	35.4801
3673.046387	13.719808	35.5478
3699.662842	13.782092	35.6320
3726.472168	13.809589	35.7408
3753.475586	13.881367	35.7759
3780.675049	13.909026	35.8183
3808.071289	13.968195	35.8978
3835.666016	14.016861	36.0294
3863.460938	14.055779	36.0290
3891.457275	14.097761	36.0841
3919.656250	14.153366	36.0988
3948.059814	14.197485	36.1762
3976.668945	14.235670	36.3615
4005.485596	14.281767	36.3781
4034.510986	14.383265	36.4199
4063.746582	14.415099	36.4140
4093.194336	14.463075	36.5240
4122.855469	14.473984	36.5705
4152.730957	14.566425	36.6422
4182.823730	14.594977	36.7055
4213.133789	14.650806	36.6470
4243.664062	14.723267	36.7727
4274.415527	14.755668	36.8253
4305.389648	14.819747	36.8050
4336.588379	14.839327	36.9229
4368.013184	14.898342	36.9713
4399.665527	14.966042	36.9627
4431.547363	14.999494	37.0571
4463.660156	15.057734	37.1105
4496.005371	15.099066	37.2206
4528.585449	15.132457	37.1585
4561.401367	15.208921	37.2876
4594.455078	15.255562	37.3589
4627.748535	15.293736	37.3783
4661.283203	15.357852	37.4621
4695.060547	15.417793	37.4632
4729.083008	15.468227	37.4952
4763.352051	15.524609	37.4467
4797.869141	15.555531	37.5807
4832.636719	15.603897	37.7590
4867.655762	15.663921	37.6962
4902.928711	15.755051	37.8367
4938.457520	15.776814	37.7868
4974.243652	15.849908	37.8656
5010.289062	15.903990	37.9546
5046.595703	15.955004	37.9979
5083.165527	16.036366	38.1145
5120.000000	16.042564	38.1493
5157.101562	16.159149	38.1120
5194.472168	16.180225	38.1325
5232.113281	16.209070	38.2980
5270.027344	16.295660	38.1616
5308.216309	16.399609	38.2612
5346.681641	16.397789	38.3364
5385.426270	16.469957	38.3108
5424.451172	16.544640	38.4786
5463.758789	16.605316	38.3436
5503.351562	16.640911	38.4121
5543.230957	16.677296	38.3873
5583.399414	16.753204	38.4714
5623.859375	16.793571	38.5566
5664.611816	16.879406	38.4870
5705.660156	16.947813	38.4855
5747.005859	16.974829	38.5272
5788.650879	17.035046	38.5744
5830.597656	17.096180	38.5756
5872.848633	17.137762	38.6031
5915.405762	17.214798	38.6237
5958.271484	17.245144	38.7373
6001.447266	17.298920	38.8251
6044.936523	17.359966	38.8293
6088.740234	17.438391	38.8777
6132.861816	17.437313	39.0145
6177.303223	17.511421	39.0969
6222.066406	17.581572	39.1029
6267.154297	17.653473	39.1284
6312.568359	17.776920	39.2536
6358.312012	17.793304	39.1035
6404.386719	17.868427	39.3123
6450.795898	17.929028	39.2716
6497.541016	17.995438	39.3164
6544.625000	18.061314	39.3033
6592.049805	18.140984	39.3939
6639.818359	18.231438	39.1208
6687.933594	18.307802	39.3081
6736.396973	18.330614	39.2317
6785.211426	18.369009	39.1331
6834.379883	18.431824	39.2365
6883.904785	18.470860	39.1911
6933.788574	18.558733	39.1745
6984.033691	18.575750	39.2076
7034.642578	18.599413	39.0931
7085.618652	18.651920	39.2838
7136.963867	18.708611	39.2361
7188.681152	18.742306	39.4332
7240.773438	18.762472	39.4647
7293.243164	18.826744	39.6137
7346.092773	18.887678	39.7660
7399.325684	18.931318	39.8624
7452.944336	19.001518	39.9449
7506.951172	19.063332	39.9679
7561.350098	19.137714	40.0660
7616.142578	19.212074	40.0471
7671.332031	19.328754	40.1920
7726.921875	19.400307	40.2523
7782.914551	19.441998	40.2709
7839.312500	19.528770	40.3552
7896.119629	19.651617	40.3748
7953.337891	19.734188	40.3410
8010.971191	19.816730	40.3604
8069.021973	19.885065	40.3232
8127.493164	19.933418	40.2652
8186.388672	20.020164	40.0943
8245.710938	20.020630	40.1721
8305.461914	20.049252	40.0955
8365.647461	20.104267	40.0807
8426.267578	20.160072	40.2147
8487.328125	20.147943	40.3384
8548.831055	20.225174	40.5063
8610.779297	20.231850	40.5728
8673.176758	20.369661	40.6502
8736.026367	20.403624	40.7935
8799.331055	20.474920	40.7312
8863.094727	20.562027	40.9959
8927.320312	20.626049	41.0271
8992.010742	20.715137	41.0893
9057.170898	20.811398	41.1559
9122.802734	20.895391	41.1163
9188.910156	20.984186	41.2041
9255.497070	21.090588	41.1893
9322.566406	21.145782	41.3316
9390.121094	21.214893	41.3510
9458.166016	21.308521	41.3774
9526.704102	21.382053	41.3888
9595.738281	21.450363	41.3844
9665.273438	21.536608	41.3691
9735.311523	21.563303	41.3569
9805.857422	21.654335	41.4418
9876.915039	21.713715	41.5374
9948.487305	21.761909	41.4836
10020.578125	21.905539	41.6311
10093.191406	21.895409	41.7249
10166.331055	21.961182	41.6889
10240.000000	22.069849	41.6974
10314.203125	22.177057	41.8728
10388.944336	22.229574	41.9467
10464.226562	22.338659	41.8668
10540.054688	22.408878	41.8739
10616.432617	22.483953	42.0876
10693.363281	22.608597	42.1243
10770.852539	22.706095	42.1549
10848.902344	22.756739	42.1632
10927.517578	22.878889	42.1236
11006.703125	22.959431	42.2040
11086.461914	22.988190	42.0986
11166.798828	23.168247	42.1712
11247.718750	23.148773	42.2054
11329.223633	23.309378	42.2200
11411.320312	23.334316	42.2538
11494.011719	23.392866	42.1939
11577.301758	23.513134	42.2842
11661.195312	23.538876	42.4626
11745.697266	23.619419	42.4501
11830.811523	23.776358	42.5505
11916.542969	23.833948	42.6155
12002.894531	23.909269	42.6421
12089.873047	23.979435	42.5494
12177.480469	24.097910	42.5771
12265.723633	24.194695	42.8382
12354.606445	24.258631	42.8797
12444.132812	24.420527	42.7469
12534.308594	24.401825	42.8281
12625.136719	24.503820	42.7554
12716.624023	24.698908	42.9253
12808.773438	24.711916	42.9963
12901.591797	24.810789	42.9076
12995.082031	24.881922	42.9022
13089.250000	25.002258	42.9031
13184.099609	25.073116	43.1033
13279.636719	25.124758	43.1370
13375.867188	25.222240	42.9956
13472.793945	25.376451	43.1817
13570.422852	25.447510	43.2797
13668.759766	25.547546	43.1313
13767.809570	25.623598	43.0570
13867.577148	25.720795	43.0772
13968.067383	25.793585	43.2843
14069.285156	25.920143	43.3800
14171.237305	26.038340	43.3642
14273.927734	26.041046	43.4077
14377.362305	26.202105	43.3989
14481.546875	26.291979	43.3962
14586.486328	26.382467	43.4851
14692.185547	26.444080	43.3815
14798.651367	26.545582	43.5423
14905.888672	26.605909	43.5268
15013.902344	26.724424	43.5316
15122.700195	26.840364	43.6350
15232.285156	26.881811	43.6387
15342.664062	26.958797	43.6226
15453.843750	27.114223	43.6585
15565.829102	27.227329	43.7377
15678.625000	27.354809	43.6292
15792.239258	27.388237	43.7609
15906.675781	27.463634	43.7054
16021.942383	27.631226	43.8975
16138.043945	27.761604	43.9218
16254.986328	27.836891	43.8915
16372.777344	27.910929	43.9725
16491.421875	27.960136	44.0374
16610.923828	28.076357	44.1780
16731.294922	28.162651	44.0947
16852.535156	28.220423	44.0346
16974.656250	28.408255	43.9380
17097.662109	28.552084	44.1438
17221.558594	28.557320	44.1386
17346.353516	28.662331	44.1821
17472.052734	28.822676	44.2067
17598.662109	28.920168	44.2513
17726.189453	29.080574	44.2270
17854.640625	29.169868	44.3739
17984.021484	29.233852	44.3731
18114.341797	29.282049	44.3955
18245.605469	29.391771	44.2847
18377.820312	29.509893	44.5782
18510.994141	29.721287	44.3877
18645.132812	29.727446	44.3035
18780.242188	29.779871	44.5883
18916.332031	29.929670	44.5514
19053.408203	29.995564	44.4873
19191.476562	30.174683	44.6858
19330.546875	30.264099	44.5510
19470.623047	30.389706	44.6496
19611.714844	30.488146	44.8655
19753.830078	30.718380	44.8142
19896.974609	30.740896	44.7075
